OSA WDM Report

Results

Trace Identification

File name:  	
Job ID:  	
Cable ID:  	
Fiber ID:  	
Customer:  	
Company:  	
Operator:  	
Maintenance reason:  	
Link ID:  	530
Orientation:  	None
System:  	
Network element:  	None
Test point:  	None
Description:  	
Comments:  	

Acquisition Conditions

Acquisition type:  	Real Time
Number of scans:  	1
Spectral range start:  	1541,000 nm
Spectral range stop:  	1560,000 nm
User calibration:  	Factory
Calibration date:  	2017-12-22
Acquisition start time:  	2025-10-01 15:40:53
Acquisition stop time:  	2025-10-01 15:40:57
Hardware model:  	FTBx-5245-EA
Serial number:  	1085217
RBW value:  	0,041 nm

Global Results

Average signal power:  	---
Signal power flatness:  	---
Average OSNR:  	---
OSNR flatness:  	---
Total power in scan range:  	-32,57 dBm
Channel count:  	0
Empty channel count:  	0

Global Test Result

Status:  	Not Active

Channel Results

Ch.#	Name	λ (nm)	Δλ (nm)	λ Peak (nm)	∆λ Peak (nm)	Signal Power (dBm)	OSNR (dB)	NoisedBm	Bandwidth 3,00 dB (nm)	Bandwidth 20,00 dB (nm)	ENBW (nm)	Transmitter Trace	Warning	


Analysis Parameters

Default Channel Analysis

Activate default channel:  	ON
Snap to ITU grid:  	OFF
Channel width:  	50,0 GHz
Signal power calculation:  	Integrated signal power
Noise for OSNR:  	Fixed range IEC based
OSNR distance:  	25,0 GHz
Noise region:  	2,5 GHz

Default Channel Thresholds

Signal power min.:  	-45,00 dBm
Signal power max.:  	15,00 dBm
Noise min.:  	-99,99 dBm
Noise max.:  	-40,00 dBm
OSNR min.:  	5,00 dB
OSNR max.:  	60,00 dB
Wavelength max. dev. ±:  	0,020 nm

Global Analysis

Peak detection level:  	-45,00 dBm
RBW for OSNR:  	0,100 nm
Wavelength offset:  	0,000 nm
Power offset:  	0,00 dB
Bandwidth at:  	20,00 dB

Global Thresholds

Average signal power min.:  	-45,00 dBm
Average signal power max.:  	15,00 dBm
Signal power flatness max.:  	1,00 dB
Average OSNR min.:  	5,00 dB
Average OSNR max.:  	60,00 dB
OSNR flatness max.:  	10,00 dB

Channel List

Name	λ (nm)	Channel Width	Signal Power	Noise for OSNR	Transmitter Trace	OSNR Distance	Noise Region	Signal Power Min. (dBm)	Signal Power Max. (dBm)	Noise Min. (dBm)	Noise Max. (dBm)	OSNR Min. (dB)	OSNR Max. (dB)	Wavelength Max. Dev. (nm)	

Graph

λ (nm)	Power (dBm)	
1541,000	-60,29	
1541,002	-60,86	
1541,004	-60,57	
1541,006	-61,19	
1541,008	-60,75	
1541,010	-60,38	
1541,012	-59,86	
1541,014	-59,92	
1541,016	-60,61	
1541,018	-60,68	
1541,020	-60,76	
1541,022	-60,78	
1541,024	-61,05	
1541,026	-60,95	
1541,028	-60,17	
1541,030	-60,16	
1541,032	-60,30	
1541,034	-60,53	
1541,036	-60,18	
1541,038	-59,90	
1541,040	-60,17	
1541,042	-60,52	
1541,044	-61,07	
1541,046	-60,10	
1541,048	-60,54	
1541,050	-59,92	
1541,052	-60,15	
1541,054	-60,43	
1541,056	-60,49	
1541,058	-60,22	
1541,060	-60,28	
1541,062	-60,43	
1541,064	-60,50	
1541,066	-60,69	
1541,068	-60,20	
1541,070	-60,18	
1541,072	-60,07	
1541,074	-59,92	
1541,076	-59,59	
1541,078	-60,13	
1541,080	-60,71	
1541,082	-60,59	
1541,084	-60,05	
1541,086	-60,30	
1541,088	-60,61	
1541,090	-60,46	
1541,092	-60,76	
1541,094	-60,68	
1541,096	-60,15	
1541,098	-60,03	
1541,100	-60,35	
1541,102	-59,83	
1541,104	-59,94	
1541,106	-60,14	
1541,108	-60,21	
1541,110	-60,32	
1541,112	-60,06	
1541,114	-59,87	
1541,116	-60,67	
1541,118	-59,95	
1541,120	-60,17	
1541,122	-60,10	
1541,124	-60,57	
1541,126	-60,46	
1541,128	-60,38	
1541,130	-60,13	
1541,132	-60,66	
1541,134	-61,13	
1541,136	-60,52	
1541,138	-60,05	
1541,140	-59,95	
1541,142	-59,82	
1541,144	-60,21	
1541,146	-60,33	
1541,148	-59,86	
1541,150	-60,11	
1541,152	-59,90	
1541,154	-60,20	
1541,156	-60,59	
1541,158	-60,00	
1541,160	-59,83	
1541,162	-60,00	
1541,164	-60,11	
1541,166	-59,99	
1541,168	-59,83	
1541,170	-60,49	
1541,172	-61,06	
1541,174	-60,64	
1541,176	-59,94	
1541,178	-59,80	
1541,180	-59,92	
1541,182	-59,62	
1541,184	-60,46	
1541,186	-59,87	
1541,188	-59,83	
1541,190	-60,02	
1541,192	-60,24	
1541,194	-59,59	
1541,196	-60,49	
1541,198	-60,35	
1541,200	-60,37	
1541,202	-60,67	
1541,204	-60,27	
1541,206	-60,47	
1541,208	-60,21	
1541,210	-60,20	
1541,212	-60,15	
1541,214	-60,20	
1541,216	-60,65	
1541,218	-60,54	
1541,220	-60,19	
1541,222	-60,03	
1541,224	-60,23	
1541,226	-60,30	
1541,228	-60,24	
1541,230	-60,95	
1541,232	-60,57	
1541,234	-60,36	
1541,236	-60,10	
1541,238	-60,21	
1541,240	-60,00	
1541,242	-59,90	
1541,244	-59,82	
1541,246	-59,85	
1541,248	-60,32	
1541,250	-60,64	
1541,252	-60,90	
1541,254	-60,72	
1541,256	-60,09	
1541,258	-60,07	
1541,260	-59,88	
1541,262	-59,83	
1541,264	-60,74	
1541,266	-60,39	
1541,268	-59,84	
1541,270	-59,89	
1541,272	-59,95	
1541,274	-60,21	
1541,276	-59,93	
1541,278	-59,74	
1541,280	-60,10	
1541,282	-60,32	
1541,284	-60,23	
1541,286	-59,82	
1541,288	-60,02	
1541,290	-60,54	
1541,292	-60,47	
1541,294	-60,71	
1541,296	-60,37	
1541,298	-60,16	
1541,300	-60,03	
1541,302	-60,43	
1541,304	-60,14	
1541,306	-59,89	
1541,308	-59,87	
1541,310	-59,83	
1541,312	-60,08	
1541,314	-60,41	
1541,316	-60,28	
1541,318	-60,41	
1541,320	-60,95	
1541,322	-60,42	
1541,324	-60,32	
1541,326	-60,05	
1541,328	-60,20	
1541,330	-59,88	
1541,332	-59,89	
1541,334	-60,12	
1541,336	-60,30	
1541,338	-59,97	
1541,340	-60,08	
1541,342	-60,69	
1541,344	-60,63	
1541,346	-60,22	
1541,348	-59,93	
1541,350	-60,14	
1541,352	-59,81	
1541,354	-59,49	
1541,356	-60,12	
1541,358	-60,22	
1541,360	-60,43	
1541,362	-60,53	
1541,364	-60,47	
1541,366	-60,35	
1541,368	-60,31	
1541,370	-60,38	
1541,372	-59,89	
1541,374	-60,28	
1541,376	-60,45	
1541,378	-59,98	
1541,380	-59,75	
1541,382	-60,05	
1541,384	-60,11	
1541,386	-59,56	
1541,388	-59,73	
1541,390	-60,14	
1541,392	-60,27	
1541,394	-60,05	
1541,396	-59,99	
1541,398	-60,60	
1541,400	-60,38	
1541,402	-60,17	
1541,404	-60,92	
1541,406	-60,65	
1541,408	-60,67	
1541,410	-60,58	
1541,412	-60,52	
1541,414	-60,52	
1541,416	-60,29	
1541,418	-60,43	
1541,420	-60,12	
1541,422	-59,47	
1541,424	-59,93	
1541,426	-60,12	
1541,428	-59,42	
1541,430	-59,88	
1541,432	-60,69	
1541,434	-60,56	
1541,436	-60,16	
1541,438	-60,52	
1541,440	-60,79	
1541,442	-60,34	
1541,444	-60,00	
1541,446	-60,35	
1541,448	-60,12	
1541,450	-59,94	
1541,452	-60,32	
1541,454	-60,69	
1541,456	-60,04	
1541,458	-59,92	
1541,460	-60,07	
1541,462	-59,99	
1541,464	-60,06	
1541,466	-60,18	
1541,468	-59,83	
1541,470	-60,05	
1541,472	-60,39	
1541,474	-60,36	
1541,476	-60,21	
1541,478	-60,06	
1541,480	-59,72	
1541,482	-60,77	
1541,484	-59,92	
1541,486	-60,21	
1541,488	-60,36	
1541,490	-60,66	
1541,492	-60,66	
1541,494	-59,92	
1541,496	-60,30	
1541,498	-60,08	
1541,500	-59,70	
1541,502	-60,11	
1541,504	-59,89	
1541,506	-60,13	
1541,508	-60,57	
1541,510	-60,25	
1541,512	-59,79	
1541,514	-59,65	
1541,516	-60,22	
1541,518	-60,60	
1541,520	-60,41	
1541,522	-60,56	
1541,524	-60,53	
1541,526	-60,48	
1541,528	-59,98	
1541,530	-60,17	
1541,532	-60,58	
1541,534	-60,33	
1541,536	-60,50	
1541,538	-60,74	
1541,540	-60,48	
1541,542	-60,26	
1541,544	-60,20	
1541,546	-60,00	
1541,548	-59,97	
1541,550	-60,38	
1541,552	-60,81	
1541,554	-61,10	
1541,556	-60,19	
1541,558	-59,65	
1541,560	-59,82	
1541,562	-59,86	
1541,564	-60,21	
1541,566	-59,93	
1541,568	-60,04	
1541,570	-60,47	
1541,572	-60,22	
1541,574	-60,46	
1541,576	-59,98	
1541,578	-60,52	
1541,580	-60,04	
1541,582	-60,08	
1541,584	-59,85	
1541,586	-60,08	
1541,588	-60,12	
1541,590	-59,96	
1541,592	-60,17	
1541,594	-60,13	
1541,596	-60,02	
1541,598	-60,49	
1541,600	-60,56	
1541,602	-60,48	
1541,604	-60,97	
1541,606	-60,25	
1541,608	-60,38	
1541,610	-59,97	
1541,612	-60,20	
1541,614	-60,07	
1541,616	-59,98	
1541,618	-59,90	
1541,620	-59,85	
1541,622	-59,83	
1541,624	-59,65	
1541,626	-60,38	
1541,628	-59,91	
1541,630	-59,92	
1541,632	-60,40	
1541,634	-60,29	
1541,636	-59,96	
1541,638	-60,17	
1541,640	-60,27	
1541,642	-60,45	
1541,644	-60,74	
1541,646	-60,02	
1541,648	-60,19	
1541,650	-60,35	
1541,652	-59,97	
1541,654	-59,93	
1541,656	-60,33	
1541,658	-60,46	
1541,660	-60,54	
1541,662	-60,63	
1541,664	-60,50	
1541,666	-60,25	
1541,668	-59,82	
1541,670	-60,27	
1541,672	-60,26	
1541,674	-60,84	
1541,676	-60,83	
1541,678	-60,84	
1541,680	-60,51	
1541,682	-60,14	
1541,684	-59,73	
1541,686	-59,84	
1541,688	-60,23	
1541,690	-60,44	
1541,692	-60,64	
1541,694	-60,18	
1541,696	-59,53	
1541,698	-60,28	
1541,700	-60,76	
1541,702	-61,02	
1541,704	-60,57	
1541,706	-60,12	
1541,708	-59,94	
1541,710	-60,09	
1541,712	-60,32	
1541,714	-60,05	
1541,716	-59,79	
1541,718	-60,53	
1541,720	-60,79	
1541,722	-60,40	
1541,724	-60,50	
1541,726	-61,02	
1541,728	-61,32	
1541,730	-60,98	
1541,732	-60,91	
1541,734	-60,24	
1541,736	-59,48	
1541,738	-59,75	
1541,740	-59,67	
1541,742	-60,00	
1541,744	-59,99	
1541,746	-60,07	
1541,748	-60,44	
1541,750	-60,40	
1541,752	-60,37	
1541,754	-60,66	
1541,756	-60,13	
1541,758	-60,49	
1541,760	-60,37	
1541,762	-60,30	
1541,764	-60,37	
1541,766	-60,37	
1541,768	-60,18	
1541,770	-60,51	
1541,772	-60,29	
1541,774	-59,84	
1541,776	-59,93	
1541,778	-60,06	
1541,780	-60,20	
1541,782	-60,37	
1541,784	-60,05	
1541,786	-60,14	
1541,788	-60,53	
1541,790	-60,34	
1541,792	-60,11	
1541,794	-60,17	
1541,796	-60,20	
1541,798	-60,51	
1541,800	-60,12	
1541,802	-60,69	
1541,804	-60,46	
1541,806	-59,68	
1541,808	-60,21	
1541,810	-60,47	
1541,812	-60,45	
1541,814	-60,02	
1541,816	-59,46	
1541,818	-59,35	
1541,820	-59,86	
1541,822	-60,08	
1541,824	-60,24	
1541,826	-60,12	
1541,828	-60,95	
1541,830	-60,69	
1541,832	-60,19	
1541,834	-59,78	
1541,836	-60,29	
1541,838	-60,63	
1541,840	-60,03	
1541,842	-59,91	
1541,844	-60,42	
1541,846	-60,29	
1541,848	-60,48	
1541,850	-60,30	
1541,852	-60,51	
1541,854	-60,66	
1541,856	-60,63	
1541,858	-60,29	
1541,860	-60,30	
1541,862	-60,43	
1541,864	-60,10	
1541,866	-59,98	
1541,868	-59,97	
1541,870	-60,01	
1541,872	-60,28	
1541,874	-60,29	
1541,876	-60,24	
1541,878	-59,82	
1541,880	-59,61	
1541,882	-60,00	
1541,884	-60,39	
1541,886	-60,26	
1541,888	-60,33	
1541,890	-60,56	
1541,892	-60,79	
1541,894	-60,83	
1541,896	-60,72	
1541,898	-60,80	
1541,900	-60,48	
1541,902	-60,41	
1541,904	-59,91	
1541,906	-60,58	
1541,908	-59,96	
1541,910	-59,95	
1541,912	-60,06	
1541,914	-59,82	
1541,916	-59,70	
1541,918	-60,23	
1541,920	-61,45	
1541,922	-60,67	
1541,924	-60,70	
1541,926	-60,65	
1541,928	-61,19	
1541,930	-61,08	
1541,932	-60,99	
1541,934	-60,59	
1541,936	-60,10	
1541,938	-60,35	
1541,940	-60,93	
1541,942	-60,00	
1541,944	-60,47	
1541,946	-60,38	
1541,948	-60,47	
1541,950	-60,13	
1541,952	-59,86	
1541,954	-60,12	
1541,956	-60,34	
1541,958	-60,32	
1541,960	-59,89	
1541,962	-60,01	
1541,964	-61,21	
1541,966	-60,76	
1541,968	-60,21	
1541,970	-59,85	
1541,972	-59,62	
1541,974	-59,71	
1541,976	-60,18	
1541,978	-60,56	
1541,980	-60,29	
1541,982	-60,57	
1541,984	-60,73	
1541,986	-60,44	
1541,988	-60,45	
1541,990	-60,84	
1541,992	-60,65	
1541,994	-60,78	
1541,996	-60,93	
1541,998	-60,20	
1542,000	-59,65	
1542,002	-59,94	
1542,004	-60,07	
1542,006	-60,73	
1542,008	-60,29	
1542,010	-60,59	
1542,012	-60,78	
1542,014	-60,11	
1542,016	-59,89	
1542,018	-60,01	
1542,020	-60,32	
1542,022	-60,82	
1542,024	-60,40	
1542,026	-60,61	
1542,028	-60,14	
1542,030	-60,02	
1542,032	-59,96	
1542,034	-60,05	
1542,036	-60,25	
1542,038	-60,95	
1542,040	-60,44	
1542,042	-60,04	
1542,044	-60,49	
1542,046	-61,00	
1542,048	-60,82	
1542,050	-60,69	
1542,052	-60,89	
1542,054	-60,69	
1542,056	-60,23	
1542,058	-59,70	
1542,060	-60,23	
1542,062	-59,57	
1542,064	-59,47	
1542,066	-59,98	
1542,068	-60,43	
1542,070	-60,40	
1542,072	-60,31	
1542,074	-60,45	
1542,076	-60,84	
1542,078	-60,57	
1542,080	-60,31	
1542,082	-60,59	
1542,084	-60,99	
1542,086	-60,60	
1542,088	-59,82	
1542,090	-59,83	
1542,092	-59,56	
1542,094	-60,31	
1542,096	-59,59	
1542,098	-60,27	
1542,100	-60,31	
1542,102	-60,26	
1542,104	-60,31	
1542,106	-60,71	
1542,108	-60,67	
1542,110	-60,58	
1542,112	-60,86	
1542,114	-59,60	
1542,116	-60,07	
1542,118	-59,78	
1542,120	-59,84	
1542,122	-59,60	
1542,124	-59,94	
1542,126	-60,38	
1542,128	-60,47	
1542,130	-60,30	
1542,132	-60,13	
1542,134	-60,70	
1542,136	-61,03	
1542,138	-60,74	
1542,140	-60,29	
1542,142	-60,08	
1542,144	-60,13	
1542,146	-60,20	
1542,148	-60,16	
1542,150	-60,16	
1542,152	-60,58	
1542,154	-60,57	
1542,156	-61,06	
1542,158	-60,51	
1542,160	-60,08	
1542,162	-60,15	
1542,164	-60,50	
1542,166	-60,23	
1542,168	-60,09	
1542,170	-60,21	
1542,172	-60,54	
1542,174	-60,67	
1542,176	-60,06	
1542,178	-60,45	
1542,180	-60,81	
1542,182	-60,43	
1542,184	-60,53	
1542,186	-60,24	
1542,188	-60,28	
1542,190	-60,27	
1542,192	-60,19	
1542,194	-59,89	
1542,196	-59,81	
1542,198	-60,27	
1542,200	-59,99	
1542,202	-60,52	
1542,204	-60,74	
1542,206	-60,25	
1542,208	-60,20	
1542,210	-60,41	
1542,212	-60,39	
1542,214	-60,12	
1542,216	-59,87	
1542,218	-60,09	
1542,220	-59,92	
1542,222	-59,82	
1542,224	-60,89	
1542,226	-60,48	
1542,228	-60,19	
1542,230	-60,21	
1542,232	-60,30	
1542,234	-60,41	
1542,236	-60,88	
1542,238	-60,86	
1542,240	-60,57	
1542,242	-60,09	
1542,244	-59,24	
1542,246	-60,05	
1542,248	-60,31	
1542,250	-60,26	
1542,252	-60,88	
1542,254	-61,53	
1542,256	-60,69	
1542,258	-60,16	
1542,260	-60,29	
1542,262	-59,84	
1542,264	-59,56	
1542,266	-59,57	
1542,268	-59,61	
1542,270	-60,06	
1542,272	-60,52	
1542,274	-60,64	
1542,276	-60,68	
1542,278	-60,83	
1542,280	-60,56	
1542,282	-61,20	
1542,284	-60,59	
1542,286	-59,93	
1542,288	-59,93	
1542,290	-59,93	
1542,292	-59,97	
1542,294	-59,76	
1542,296	-59,74	
1542,298	-60,09	
1542,300	-60,40	
1542,302	-59,82	
1542,304	-60,86	
1542,306	-60,43	
1542,308	-60,06	
1542,310	-60,21	
1542,312	-59,82	
1542,314	-59,89	
1542,316	-59,94	
1542,318	-59,92	
1542,320	-59,92	
1542,322	-60,19	
1542,324	-60,40	
1542,326	-60,72	
1542,328	-60,22	
1542,330	-60,81	
1542,332	-60,50	
1542,334	-60,20	
1542,336	-59,98	
1542,338	-59,60	
1542,340	-59,77	
1542,342	-60,38	
1542,344	-60,46	
1542,346	-60,33	
1542,348	-60,21	
1542,350	-59,94	
1542,352	-60,54	
1542,354	-59,93	
1542,356	-60,56	
1542,358	-60,08	
1542,360	-60,14	
1542,362	-61,03	
1542,364	-60,64	
1542,366	-60,16	
1542,368	-60,35	
1542,370	-59,88	
1542,372	-59,53	
1542,374	-60,05	
1542,376	-60,31	
1542,378	-60,09	
1542,380	-60,14	
1542,382	-59,98	
1542,384	-59,73	
1542,386	-59,69	
1542,388	-60,23	
1542,390	-60,15	
1542,392	-60,05	
1542,394	-60,31	
1542,396	-60,36	
1542,398	-60,39	
1542,400	-60,06	
1542,402	-60,44	
1542,404	-60,46	
1542,406	-60,12	
1542,408	-60,23	
1542,410	-60,62	
1542,412	-60,85	
1542,414	-60,41	
1542,416	-60,19	
1542,418	-60,40	
1542,420	-59,93	
1542,422	-59,88	
1542,424	-59,92	
1542,426	-59,98	
1542,428	-59,89	
1542,430	-60,23	
1542,432	-60,31	
1542,434	-60,82	
1542,436	-60,58	
1542,438	-60,19	
1542,440	-59,74	
1542,442	-59,68	
1542,444	-60,02	
1542,446	-60,23	
1542,448	-59,91	
1542,450	-59,86	
1542,452	-59,90	
1542,454	-60,06	
1542,456	-60,16	
1542,458	-60,89	
1542,460	-60,70	
1542,462	-60,65	
1542,464	-60,04	
1542,466	-60,25	
1542,468	-59,72	
1542,470	-59,84	
1542,472	-60,13	
1542,474	-59,93	
1542,476	-59,66	
1542,478	-59,52	
1542,480	-60,01	
1542,482	-60,30	
1542,484	-60,16	
1542,486	-60,30	
1542,488	-60,12	
1542,490	-60,12	
1542,492	-60,28	
1542,494	-60,43	
1542,496	-59,94	
1542,498	-60,05	
1542,500	-59,93	
1542,502	-59,67	
1542,504	-59,36	
1542,506	-60,04	
1542,508	-59,77	
1542,510	-59,55	
1542,512	-59,51	
1542,514	-59,89	
1542,516	-60,12	
1542,518	-59,64	
1542,520	-59,62	
1542,522	-60,03	
1542,524	-60,07	
1542,526	-60,45	
1542,528	-59,87	
1542,530	-60,57	
1542,532	-59,92	
1542,534	-60,32	
1542,536	-60,10	
1542,538	-60,04	
1542,540	-60,29	
1542,542	-60,41	
1542,544	-60,87	
1542,546	-59,77	
1542,548	-59,89	
1542,550	-59,85	
1542,552	-59,44	
1542,554	-59,33	
1542,556	-59,32	
1542,558	-59,63	
1542,560	-59,79	
1542,562	-60,04	
1542,564	-60,55	
1542,566	-60,72	
1542,568	-60,49	
1542,570	-60,00	
1542,572	-60,04	
1542,574	-60,36	
1542,576	-59,67	
1542,578	-59,77	
1542,580	-59,60	
1542,582	-60,24	
1542,584	-59,95	
1542,586	-60,12	
1542,588	-60,30	
1542,590	-59,78	
1542,592	-59,90	
1542,594	-59,88	
1542,596	-59,56	
1542,598	-59,60	
1542,600	-59,87	
1542,602	-59,98	
1542,604	-60,06	
1542,606	-60,20	
1542,608	-60,02	
1542,610	-59,82	
1542,612	-59,86	
1542,614	-59,33	
1542,616	-59,62	
1542,618	-59,94	
1542,620	-59,62	
1542,622	-60,27	
1542,624	-59,50	
1542,626	-60,87	
1542,628	-60,18	
1542,630	-59,60	
1542,632	-59,70	
1542,634	-59,59	
1542,636	-59,50	
1542,638	-59,95	
1542,640	-60,19	
1542,642	-60,06	
1542,644	-60,07	
1542,646	-60,24	
1542,648	-59,95	
1542,650	-59,91	
1542,652	-60,01	
1542,654	-59,84	
1542,656	-59,64	
1542,658	-59,19	
1542,660	-59,74	
1542,662	-60,15	
1542,664	-59,24	
1542,666	-60,24	
1542,668	-59,88	
1542,670	-59,70	
1542,672	-59,83	
1542,674	-60,26	
1542,676	-60,14	
1542,678	-60,03	
1542,680	-59,89	
1542,682	-59,66	
1542,684	-59,71	
1542,686	-59,57	
1542,688	-59,76	
1542,690	-59,47	
1542,692	-60,08	
1542,694	-60,23	
1542,696	-59,59	
1542,698	-59,83	
1542,700	-60,24	
1542,702	-59,76	
1542,704	-59,94	
1542,706	-59,83	
1542,708	-59,90	
1542,710	-59,77	
1542,712	-59,66	
1542,714	-60,00	
1542,716	-59,93	
1542,718	-59,60	
1542,720	-59,79	
1542,722	-59,79	
1542,724	-59,62	
1542,726	-59,47	
1542,728	-59,92	
1542,730	-60,52	
1542,732	-59,81	
1542,734	-59,88	
1542,736	-60,34	
1542,738	-59,53	
1542,740	-59,94	
1542,742	-59,36	
1542,744	-59,80	
1542,746	-59,51	
1542,748	-59,74	
1542,750	-59,53	
1542,752	-59,35	
1542,754	-59,45	
1542,756	-59,71	
1542,758	-59,71	
1542,760	-59,47	
1542,762	-60,01	
1542,764	-60,09	
1542,766	-59,50	
1542,768	-59,76	
1542,770	-59,66	
1542,772	-60,03	
1542,774	-60,31	
1542,776	-59,82	
1542,778	-59,42	
1542,780	-59,69	
1542,782	-59,92	
1542,784	-59,88	
1542,786	-59,60	
1542,788	-59,43	
1542,790	-59,29	
1542,792	-59,83	
1542,794	-59,99	
1542,796	-59,92	
1542,798	-59,64	
1542,800	-60,09	
1542,802	-60,38	
1542,804	-60,23	
1542,806	-59,79	
1542,808	-59,91	
1542,810	-59,88	
1542,812	-59,64	
1542,814	-59,55	
1542,816	-59,31	
1542,818	-59,33	
1542,820	-59,56	
1542,822	-59,38	
1542,824	-59,55	
1542,826	-59,27	
1542,828	-59,30	
1542,830	-59,88	
1542,832	-59,85	
1542,834	-59,91	
1542,836	-59,91	
1542,838	-59,73	
1542,840	-59,61	
1542,842	-59,76	
1542,844	-59,76	
1542,846	-59,96	
1542,848	-59,90	
1542,850	-59,45	
1542,852	-59,67	
1542,854	-59,62	
1542,856	-59,89	
1542,858	-59,98	
1542,860	-59,65	
1542,862	-59,60	
1542,864	-59,97	
1542,866	-59,56	
1542,868	-59,53	
1542,870	-59,68	
1542,872	-59,41	
1542,874	-59,76	
1542,876	-60,05	
1542,878	-59,57	
1542,880	-59,46	
1542,882	-59,58	
1542,884	-59,68	
1542,886	-59,43	
1542,888	-59,21	
1542,890	-59,94	
1542,892	-59,98	
1542,894	-60,17	
1542,896	-60,03	
1542,898	-59,54	
1542,900	-59,19	
1542,902	-59,60	
1542,904	-60,03	
1542,906	-60,18	
1542,908	-60,12	
1542,910	-59,86	
1542,912	-59,83	
1542,914	-59,81	
1542,916	-59,63	
1542,918	-59,82	
1542,920	-59,96	
1542,922	-59,60	
1542,924	-59,76	
1542,926	-59,47	
1542,928	-59,44	
1542,930	-59,58	
1542,932	-59,61	
1542,934	-59,70	
1542,936	-59,82	
1542,938	-59,63	
1542,940	-59,90	
1542,942	-59,95	
1542,944	-59,23	
1542,946	-59,22	
1542,948	-59,44	
1542,950	-59,58	
1542,952	-59,73	
1542,954	-59,74	
1542,956	-59,94	
1542,958	-59,72	
1542,960	-59,24	
1542,962	-59,60	
1542,964	-59,74	
1542,966	-59,49	
1542,968	-60,47	
1542,970	-59,67	
1542,972	-59,41	
1542,974	-60,01	
1542,976	-59,67	
1542,978	-59,59	
1542,980	-60,17	
1542,982	-60,17	
1542,984	-59,44	
1542,986	-59,30	
1542,988	-59,51	
1542,990	-59,86	
1542,992	-59,18	
1542,994	-59,72	
1542,996	-59,51	
1542,998	-59,89	
1543,000	-60,18	
1543,002	-59,86	
1543,004	-59,61	
1543,006	-59,61	
1543,008	-59,86	
1543,010	-60,08	
1543,012	-60,24	
1543,014	-59,68	
1543,016	-59,46	
1543,018	-59,32	
1543,020	-59,44	
1543,022	-59,30	
1543,024	-59,14	
1543,026	-59,75	
1543,028	-59,45	
1543,030	-59,86	
1543,032	-59,65	
1543,034	-59,36	
1543,036	-59,47	
1543,038	-59,82	
1543,040	-60,48	
1543,042	-59,74	
1543,044	-59,66	
1543,046	-59,55	
1543,048	-59,43	
1543,050	-59,36	
1543,052	-59,30	
1543,054	-59,16	
1543,056	-59,35	
1543,058	-59,69	
1543,060	-59,44	
1543,062	-59,68	
1543,064	-59,63	
1543,066	-59,51	
1543,068	-60,13	
1543,070	-60,22	
1543,072	-59,69	
1543,074	-59,51	
1543,076	-59,64	
1543,078	-59,25	
1543,080	-59,86	
1543,082	-59,91	
1543,084	-59,74	
1543,086	-59,33	
1543,088	-59,46	
1543,090	-59,51	
1543,092	-59,48	
1543,094	-59,82	
1543,096	-59,64	
1543,098	-59,40	
1543,100	-59,89	
1543,102	-59,77	
1543,104	-59,39	
1543,106	-59,17	
1543,108	-59,79	
1543,110	-60,27	
1543,112	-59,62	
1543,114	-59,72	
1543,116	-60,00	
1543,118	-59,38	
1543,120	-59,33	
1543,122	-59,59	
1543,124	-59,51	
1543,126	-59,75	
1543,128	-60,02	
1543,130	-59,81	
1543,132	-59,76	
1543,134	-59,32	
1543,136	-59,37	
1543,138	-59,98	
1543,140	-59,62	
1543,142	-59,92	
1543,144	-59,69	
1543,146	-59,74	
1543,148	-59,49	
1543,150	-59,60	
1543,152	-59,64	
1543,154	-59,34	
1543,156	-59,49	
1543,158	-59,83	
1543,160	-59,71	
1543,162	-59,61	
1543,164	-59,46	
1543,166	-59,51	
1543,168	-59,53	
1543,170	-59,61	
1543,172	-59,72	
1543,174	-59,58	
1543,176	-59,80	
1543,178	-60,17	
1543,180	-59,77	
1543,182	-59,32	
1543,184	-59,63	
1543,186	-59,18	
1543,188	-59,10	
1543,190	-59,29	
1543,192	-59,23	
1543,194	-59,27	
1543,196	-59,66	
1543,198	-59,62	
1543,200	-60,14	
1543,202	-60,44	
1543,204	-59,71	
1543,206	-59,31	
1543,208	-59,47	
1543,210	-59,51	
1543,212	-59,26	
1543,214	-59,23	
1543,216	-59,26	
1543,218	-59,18	
1543,220	-60,08	
1543,222	-60,31	
1543,224	-59,97	
1543,226	-59,83	
1543,228	-59,78	
1543,230	-59,92	
1543,232	-60,02	
1543,234	-59,75	
1543,236	-59,34	
1543,238	-59,35	
1543,240	-59,34	
1543,242	-59,49	
1543,244	-59,58	
1543,246	-59,76	
1543,248	-59,78	
1543,250	-59,62	
1543,252	-59,32	
1543,254	-59,43	
1543,256	-60,04	
1543,258	-60,23	
1543,260	-59,81	
1543,262	-59,84	
1543,264	-60,13	
1543,266	-59,42	
1543,268	-59,45	
1543,270	-59,00	
1543,272	-59,19	
1543,274	-59,52	
1543,276	-59,65	
1543,278	-59,79	
1543,280	-60,08	
1543,282	-60,20	
1543,284	-60,04	
1543,286	-59,46	
1543,288	-59,90	
1543,290	-60,05	
1543,292	-59,92	
1543,294	-59,65	
1543,296	-59,72	
1543,298	-59,77	
1543,300	-59,66	
1543,302	-59,49	
1543,304	-59,29	
1543,306	-59,66	
1543,308	-59,92	
1543,310	-59,78	
1543,312	-59,85	
1543,314	-59,60	
1543,316	-59,67	
1543,318	-59,82	
1543,320	-59,61	
1543,322	-60,08	
1543,324	-60,01	
1543,326	-59,84	
1543,328	-59,97	
1543,330	-59,92	
1543,332	-59,79	
1543,334	-59,39	
1543,336	-59,67	
1543,338	-59,88	
1543,340	-59,95	
1543,342	-60,00	
1543,344	-59,70	
1543,346	-59,93	
1543,348	-59,96	
1543,350	-59,79	
1543,352	-59,86	
1543,354	-59,49	
1543,356	-59,59	
1543,358	-59,74	
1543,360	-59,73	
1543,362	-59,84	
1543,364	-59,22	
1543,366	-59,94	
1543,368	-59,94	
1543,370	-59,89	
1543,372	-59,69	
1543,374	-59,39	
1543,376	-60,08	
1543,378	-59,84	
1543,380	-59,96	
1543,382	-59,69	
1543,384	-60,18	
1543,386	-60,12	
1543,388	-59,58	
1543,390	-59,74	
1543,392	-59,59	
1543,394	-59,67	
1543,396	-59,84	
1543,398	-59,84	
1543,400	-59,86	
1543,402	-59,84	
1543,404	-60,17	
1543,406	-59,82	
1543,408	-59,88	
1543,410	-59,49	
1543,412	-59,64	
1543,414	-60,10	
1543,416	-59,47	
1543,418	-59,58	
1543,420	-59,59	
1543,422	-59,44	
1543,424	-59,41	
1543,426	-59,75	
1543,428	-60,19	
1543,430	-60,52	
1543,432	-60,47	
1543,434	-59,98	
1543,436	-60,05	
1543,438	-60,34	
1543,440	-60,21	
1543,442	-60,16	
1543,444	-60,29	
1543,446	-59,65	
1543,448	-59,76	
1543,450	-59,58	
1543,452	-59,81	
1543,454	-60,12	
1543,456	-59,56	
1543,458	-59,91	
1543,460	-59,77	
1543,462	-59,78	
1543,464	-60,06	
1543,466	-59,78	
1543,468	-59,55	
1543,470	-59,71	
1543,472	-59,45	
1543,474	-59,73	
1543,476	-59,92	
1543,478	-59,91	
1543,480	-59,87	
1543,482	-60,43	
1543,484	-59,76	
1543,486	-61,09	
1543,488	-60,47	
1543,490	-59,77	
1543,492	-59,86	
1543,494	-59,68	
1543,496	-59,42	
1543,498	-59,67	
1543,500	-59,89	
1543,502	-59,85	
1543,504	-59,90	
1543,506	-60,22	
1543,508	-59,79	
1543,510	-59,71	
1543,512	-59,71	
1543,514	-60,33	
1543,516	-59,30	
1543,518	-59,67	
1543,520	-59,18	
1543,522	-59,62	
1543,524	-60,30	
1543,526	-60,60	
1543,528	-60,34	
1543,530	-60,16	
1543,532	-60,17	
1543,534	-60,27	
1543,536	-59,88	
1543,538	-59,42	
1543,540	-59,45	
1543,542	-59,67	
1543,544	-60,45	
1543,546	-60,02	
1543,548	-60,35	
1543,550	-59,87	
1543,552	-59,73	
1543,554	-59,49	
1543,556	-59,79	
1543,558	-60,05	
1543,560	-60,32	
1543,562	-60,66	
1543,564	-60,14	
1543,566	-59,87	
1543,568	-60,09	
1543,570	-60,00	
1543,572	-59,68	
1543,574	-60,14	
1543,576	-59,96	
1543,578	-59,45	
1543,580	-59,62	
1543,582	-60,18	
1543,584	-60,39	
1543,586	-60,01	
1543,588	-59,82	
1543,590	-59,97	
1543,592	-59,90	
1543,594	-60,25	
1543,596	-60,60	
1543,598	-60,28	
1543,600	-60,17	
1543,602	-60,31	
1543,604	-60,02	
1543,606	-59,77	
1543,608	-59,76	
1543,610	-60,11	
1543,612	-60,53	
1543,614	-60,02	
1543,616	-59,91	
1543,618	-59,69	
1543,620	-59,60	
1543,622	-59,94	
1543,624	-60,23	
1543,626	-60,51	
1543,628	-59,94	
1543,630	-59,81	
1543,632	-59,95	
1543,634	-59,96	
1543,636	-60,00	
1543,638	-60,23	
1543,640	-60,38	
1543,642	-59,91	
1543,644	-59,91	
1543,646	-59,87	
1543,648	-59,24	
1543,650	-60,30	
1543,652	-59,98	
1543,654	-60,08	
1543,656	-60,31	
1543,658	-60,41	
1543,660	-60,27	
1543,662	-59,83	
1543,664	-59,73	
1543,666	-59,53	
1543,668	-59,32	
1543,670	-59,97	
1543,672	-60,11	
1543,674	-60,02	
1543,676	-60,24	
1543,678	-60,44	
1543,680	-60,66	
1543,682	-60,62	
1543,684	-60,46	
1543,686	-60,00	
1543,688	-59,96	
1543,690	-60,15	
1543,692	-59,94	
1543,694	-60,25	
1543,696	-60,10	
1543,698	-60,20	
1543,700	-60,24	
1543,702	-59,90	
1543,704	-59,33	
1543,706	-60,18	
1543,708	-60,19	
1543,710	-59,91	
1543,712	-59,93	
1543,714	-59,87	
1543,716	-60,00	
1543,718	-59,93	
1543,720	-59,91	
1543,722	-60,25	
1543,724	-60,81	
1543,726	-60,06	
1543,728	-60,66	
1543,730	-60,04	
1543,732	-60,45	
1543,734	-60,19	
1543,736	-59,95	
1543,738	-60,05	
1543,740	-59,92	
1543,742	-59,72	
1543,744	-59,52	
1543,746	-59,78	
1543,748	-60,02	
1543,750	-60,42	
1543,752	-60,49	
1543,754	-60,02	
1543,756	-59,73	
1543,758	-60,12	
1543,760	-60,35	
1543,762	-60,51	
1543,764	-60,02	
1543,766	-59,82	
1543,768	-60,09	
1543,770	-59,96	
1543,772	-59,69	
1543,774	-59,65	
1543,776	-60,17	
1543,778	-60,03	
1543,780	-59,97	
1543,782	-60,06	
1543,784	-59,89	
1543,786	-59,94	
1543,788	-59,95	
1543,790	-60,17	
1543,792	-60,28	
1543,794	-59,84	
1543,796	-59,45	
1543,798	-59,68	
1543,800	-59,84	
1543,802	-60,63	
1543,804	-59,77	
1543,806	-59,55	
1543,808	-59,78	
1543,810	-59,61	
1543,812	-59,74	
1543,814	-59,96	
1543,816	-60,13	
1543,818	-60,04	
1543,820	-60,02	
1543,822	-60,25	
1543,824	-60,65	
1543,826	-60,94	
1543,828	-59,82	
1543,830	-60,36	
1543,832	-60,69	
1543,834	-60,40	
1543,836	-60,14	
1543,838	-60,27	
1543,840	-60,39	
1543,842	-59,70	
1543,844	-59,44	
1543,846	-60,17	
1543,848	-59,95	
1543,850	-60,41	
1543,852	-60,21	
1543,854	-60,07	
1543,856	-60,13	
1543,858	-60,59	
1543,860	-61,01	
1543,862	-60,42	
1543,864	-59,92	
1543,866	-59,87	
1543,868	-60,11	
1543,870	-60,00	
1543,872	-59,76	
1543,874	-59,90	
1543,876	-59,67	
1543,878	-60,12	
1543,880	-60,61	
1543,882	-60,29	
1543,884	-60,34	
1543,886	-60,82	
1543,888	-59,72	
1543,890	-60,19	
1543,892	-61,10	
1543,894	-59,68	
1543,896	-60,27	
1543,898	-60,67	
1543,900	-60,63	
1543,902	-60,35	
1543,904	-60,34	
1543,906	-60,20	
1543,908	-59,73	
1543,910	-59,71	
1543,912	-60,43	
1543,914	-60,10	
1543,916	-60,07	
1543,918	-60,28	
1543,920	-61,04	
1543,922	-60,67	
1543,924	-60,40	
1543,926	-60,36	
1543,928	-59,87	
1543,930	-59,76	
1543,932	-59,40	
1543,934	-60,08	
1543,936	-59,94	
1543,938	-60,00	
1543,940	-59,61	
1543,942	-60,14	
1543,944	-60,22	
1543,946	-59,58	
1543,948	-60,09	
1543,950	-60,54	
1543,952	-60,06	
1543,954	-60,18	
1543,956	-60,06	
1543,958	-60,25	
1543,960	-60,76	
1543,962	-60,22	
1543,964	-59,75	
1543,966	-59,79	
1543,968	-59,83	
1543,970	-59,94	
1543,972	-59,94	
1543,974	-59,69	
1543,976	-59,55	
1543,978	-60,55	
1543,980	-60,47	
1543,982	-60,25	
1543,984	-60,24	
1543,986	-59,87	
1543,988	-59,79	
1543,990	-60,53	
1543,992	-60,10	
1543,994	-60,94	
1543,996	-60,61	
1543,998	-59,62	
1544,000	-59,84	
1544,002	-59,94	
1544,004	-59,82	
1544,006	-60,32	
1544,008	-60,20	
1544,010	-60,12	
1544,012	-60,32	
1544,014	-60,37	
1544,016	-59,87	
1544,018	-59,64	
1544,020	-59,83	
1544,022	-59,90	
1544,024	-59,80	
1544,026	-59,99	
1544,028	-60,39	
1544,030	-60,46	
1544,032	-60,23	
1544,034	-60,10	
1544,036	-59,83	
1544,038	-59,65	
1544,040	-60,17	
1544,042	-61,00	
1544,044	-59,90	
1544,046	-60,48	
1544,048	-60,34	
1544,050	-60,52	
1544,052	-59,88	
1544,054	-59,42	
1544,056	-59,49	
1544,058	-59,76	
1544,060	-60,07	
1544,062	-59,78	
1544,064	-59,59	
1544,066	-60,26	
1544,068	-60,29	
1544,070	-60,35	
1544,072	-60,23	
1544,074	-60,20	
1544,076	-60,44	
1544,078	-59,45	
1544,080	-60,02	
1544,082	-60,14	
1544,084	-59,83	
1544,086	-59,89	
1544,088	-60,10	
1544,090	-60,06	
1544,092	-59,95	
1544,094	-60,08	
1544,096	-59,46	
1544,098	-59,57	
1544,100	-60,26	
1544,102	-60,75	
1544,104	-60,59	
1544,106	-60,32	
1544,108	-60,26	
1544,110	-59,47	
1544,112	-59,75	
1544,114	-60,16	
1544,116	-59,96	
1544,118	-59,67	
1544,120	-59,92	
1544,122	-60,26	
1544,124	-60,11	
1544,126	-59,59	
1544,128	-59,64	
1544,130	-60,47	
1544,132	-60,32	
1544,134	-60,08	
1544,136	-60,09	
1544,138	-59,97	
1544,140	-59,52	
1544,142	-60,17	
1544,144	-60,12	
1544,146	-60,52	
1544,148	-60,46	
1544,150	-60,28	
1544,152	-60,37	
1544,154	-60,28	
1544,156	-59,74	
1544,158	-59,70	
1544,160	-59,68	
1544,162	-59,98	
1544,164	-60,02	
1544,166	-60,24	
1544,168	-60,38	
1544,170	-60,17	
1544,172	-59,79	
1544,174	-59,78	
1544,176	-59,33	
1544,178	-59,98	
1544,180	-60,05	
1544,182	-60,15	
1544,184	-60,19	
1544,186	-60,10	
1544,188	-60,66	
1544,190	-59,98	
1544,192	-59,96	
1544,194	-60,20	
1544,196	-60,07	
1544,198	-59,83	
1544,200	-59,89	
1544,202	-60,09	
1544,204	-60,06	
1544,206	-60,08	
1544,208	-59,93	
1544,210	-59,76	
1544,212	-59,62	
1544,214	-59,75	
1544,216	-59,92	
1544,218	-59,94	
1544,220	-59,43	
1544,222	-60,69	
1544,224	-59,27	
1544,226	-59,24	
1544,228	-59,82	
1544,230	-60,11	
1544,232	-59,99	
1544,234	-59,81	
1544,236	-60,19	
1544,238	-59,90	
1544,240	-59,67	
1544,242	-60,05	
1544,244	-60,36	
1544,246	-60,47	
1544,248	-60,63	
1544,250	-60,11	
1544,252	-59,42	
1544,254	-59,31	
1544,256	-59,89	
1544,258	-59,65	
1544,260	-59,66	
1544,262	-60,03	
1544,264	-59,99	
1544,266	-59,49	
1544,268	-59,74	
1544,270	-59,84	
1544,272	-60,04	
1544,274	-59,93	
1544,276	-59,72	
1544,278	-59,45	
1544,280	-59,32	
1544,282	-59,52	
1544,284	-59,92	
1544,286	-60,39	
1544,288	-60,14	
1544,290	-60,18	
1544,292	-59,72	
1544,294	-59,65	
1544,296	-59,84	
1544,298	-60,10	
1544,300	-60,15	
1544,302	-59,71	
1544,304	-59,38	
1544,306	-60,01	
1544,308	-59,46	
1544,310	-59,42	
1544,312	-59,73	
1544,314	-59,39	
1544,316	-59,31	
1544,318	-59,44	
1544,320	-59,44	
1544,322	-59,88	
1544,324	-59,85	
1544,326	-59,88	
1544,328	-59,56	
1544,330	-60,01	
1544,332	-59,91	
1544,334	-59,69	
1544,336	-59,94	
1544,338	-60,35	
1544,340	-60,24	
1544,342	-59,47	
1544,344	-59,50	
1544,346	-60,37	
1544,348	-59,40	
1544,350	-59,35	
1544,352	-59,25	
1544,354	-59,39	
1544,356	-59,74	
1544,358	-59,92	
1544,360	-59,81	
1544,362	-59,66	
1544,364	-59,58	
1544,366	-59,92	
1544,368	-59,36	
1544,370	-59,55	
1544,372	-59,59	
1544,374	-59,72	
1544,376	-59,62	
1544,378	-59,78	
1544,380	-59,90	
1544,382	-59,71	
1544,384	-60,02	
1544,386	-59,72	
1544,388	-60,42	
1544,390	-59,25	
1544,392	-59,48	
1544,394	-59,66	
1544,396	-59,45	
1544,398	-59,55	
1544,400	-59,78	
1544,402	-59,65	
1544,404	-59,44	
1544,406	-59,92	
1544,408	-59,95	
1544,410	-59,63	
1544,412	-59,73	
1544,414	-59,85	
1544,416	-59,93	
1544,418	-60,13	
1544,420	-59,64	
1544,422	-59,89	
1544,424	-59,95	
1544,426	-59,64	
1544,428	-59,54	
1544,430	-59,48	
1544,432	-59,45	
1544,434	-59,46	
1544,436	-59,38	
1544,438	-59,85	
1544,440	-60,24	
1544,442	-59,93	
1544,444	-60,17	
1544,446	-59,66	
1544,448	-59,59	
1544,450	-59,70	
1544,452	-59,81	
1544,454	-59,95	
1544,456	-59,36	
1544,458	-59,75	
1544,460	-59,39	
1544,462	-59,27	
1544,464	-59,40	
1544,466	-59,40	
1544,468	-59,40	
1544,470	-59,25	
1544,472	-59,40	
1544,474	-59,89	
1544,476	-59,19	
1544,478	-60,05	
1544,480	-59,93	
1544,482	-59,67	
1544,484	-59,60	
1544,486	-59,69	
1544,488	-59,65	
1544,490	-59,68	
1544,492	-59,54	
1544,494	-59,47	
1544,496	-59,61	
1544,498	-59,72	
1544,500	-59,83	
1544,502	-59,77	
1544,504	-59,55	
1544,506	-59,29	
1544,508	-59,09	
1544,510	-59,55	
1544,512	-58,99	
1544,514	-59,81	
1544,516	-59,97	
1544,518	-59,82	
1544,520	-59,83	
1544,522	-60,00	
1544,524	-59,84	
1544,526	-59,47	
1544,528	-59,37	
1544,530	-59,92	
1544,532	-60,56	
1544,534	-59,68	
1544,536	-60,24	
1544,538	-60,10	
1544,540	-59,59	
1544,542	-59,78	
1544,544	-59,92	
1544,546	-59,64	
1544,548	-59,19	
1544,550	-59,22	
1544,552	-59,35	
1544,554	-59,30	
1544,556	-59,86	
1544,558	-59,83	
1544,560	-59,37	
1544,562	-59,26	
1544,564	-59,30	
1544,566	-59,38	
1544,568	-59,57	
1544,570	-59,88	
1544,572	-59,89	
1544,574	-59,50	
1544,576	-59,44	
1544,578	-59,50	
1544,580	-59,51	
1544,582	-59,19	
1544,584	-59,88	
1544,586	-60,08	
1544,588	-59,42	
1544,590	-59,74	
1544,592	-59,66	
1544,594	-59,59	
1544,596	-59,70	
1544,598	-60,01	
1544,600	-59,79	
1544,602	-59,50	
1544,604	-59,52	
1544,606	-59,70	
1544,608	-59,69	
1544,610	-59,35	
1544,612	-59,74	
1544,614	-59,35	
1544,616	-59,36	
1544,618	-60,01	
1544,620	-59,30	
1544,622	-59,17	
1544,624	-59,62	
1544,626	-59,65	
1544,628	-59,66	
1544,630	-59,75	
1544,632	-59,58	
1544,634	-59,59	
1544,636	-59,28	
1544,638	-59,00	
1544,640	-59,39	
1544,642	-59,74	
1544,644	-60,50	
1544,646	-59,51	
1544,648	-59,77	
1544,650	-60,01	
1544,652	-60,02	
1544,654	-59,40	
1544,656	-59,32	
1544,658	-59,54	
1544,660	-59,19	
1544,662	-58,96	
1544,664	-59,43	
1544,666	-60,30	
1544,668	-60,01	
1544,670	-59,67	
1544,672	-59,48	
1544,674	-59,58	
1544,676	-59,31	
1544,678	-59,83	
1544,680	-59,61	
1544,682	-59,33	
1544,684	-59,30	
1544,686	-59,30	
1544,688	-59,28	
1544,690	-59,13	
1544,692	-59,15	
1544,694	-59,33	
1544,696	-59,39	
1544,698	-59,53	
1544,700	-59,32	
1544,702	-59,82	
1544,704	-59,41	
1544,706	-59,13	
1544,708	-59,35	
1544,710	-59,43	
1544,712	-59,77	
1544,714	-59,89	
1544,716	-59,40	
1544,718	-59,35	
1544,720	-59,74	
1544,722	-59,08	
1544,724	-58,93	
1544,726	-59,74	
1544,728	-59,64	
1544,730	-59,50	
1544,732	-59,75	
1544,734	-59,52	
1544,736	-59,37	
1544,738	-59,33	
1544,740	-59,41	
1544,742	-59,75	
1544,744	-59,94	
1544,746	-59,97	
1544,748	-59,99	
1544,750	-59,92	
1544,752	-59,18	
1544,754	-60,63	
1544,756	-59,32	
1544,758	-59,11	
1544,760	-59,67	
1544,762	-59,03	
1544,764	-59,42	
1544,766	-59,56	
1544,768	-59,29	
1544,770	-59,11	
1544,772	-59,18	
1544,774	-59,42	
1544,776	-59,68	
1544,778	-60,13	
1544,780	-59,92	
1544,782	-59,99	
1544,784	-59,79	
1544,786	-59,22	
1544,788	-59,74	
1544,790	-58,93	
1544,792	-59,36	
1544,794	-59,56	
1544,796	-59,69	
1544,798	-59,69	
1544,800	-59,35	
1544,802	-59,39	
1544,804	-59,56	
1544,806	-59,56	
1544,808	-59,75	
1544,810	-59,80	
1544,812	-59,57	
1544,814	-59,08	
1544,816	-58,86	
1544,818	-59,39	
1544,820	-59,60	
1544,822	-59,51	
1544,824	-59,84	
1544,826	-59,61	
1544,828	-59,11	
1544,830	-59,64	
1544,832	-59,62	
1544,834	-59,31	
1544,836	-59,43	
1544,838	-59,64	
1544,840	-59,60	
1544,842	-59,39	
1544,844	-59,57	
1544,846	-60,19	
1544,848	-59,42	
1544,850	-59,34	
1544,852	-59,81	
1544,854	-59,35	
1544,856	-59,41	
1544,858	-59,04	
1544,860	-59,18	
1544,862	-59,78	
1544,864	-59,63	
1544,866	-59,74	
1544,868	-59,85	
1544,870	-59,62	
1544,872	-59,74	
1544,874	-59,76	
1544,876	-59,41	
1544,878	-59,27	
1544,880	-59,57	
1544,882	-59,72	
1544,884	-59,64	
1544,886	-59,82	
1544,888	-60,21	
1544,890	-59,54	
1544,892	-59,49	
1544,894	-59,46	
1544,896	-59,39	
1544,898	-59,39	
1544,900	-59,42	
1544,902	-59,51	
1544,904	-59,70	
1544,906	-59,65	
1544,908	-59,49	
1544,910	-59,47	
1544,912	-59,82	
1544,914	-59,46	
1544,916	-59,73	
1544,918	-59,40	
1544,920	-59,63	
1544,922	-60,11	
1544,924	-60,81	
1544,926	-60,83	
1544,928	-60,09	
1544,930	-59,59	
1544,932	-59,40	
1544,934	-59,42	
1544,936	-59,61	
1544,938	-59,42	
1544,940	-59,42	
1544,942	-59,54	
1544,944	-59,58	
1544,946	-59,64	
1544,948	-59,54	
1544,950	-59,37	
1544,952	-59,67	
1544,954	-60,21	
1544,956	-59,73	
1544,958	-60,09	
1544,960	-59,66	
1544,962	-59,59	
1544,964	-59,82	
1544,966	-59,74	
1544,968	-59,46	
1544,970	-59,37	
1544,972	-59,63	
1544,974	-59,34	
1544,976	-59,14	
1544,978	-59,49	
1544,980	-60,02	
1544,982	-59,94	
1544,984	-59,41	
1544,986	-59,56	
1544,988	-60,62	
1544,990	-59,88	
1544,992	-59,22	
1544,994	-59,38	
1544,996	-59,09	
1544,998	-59,71	
1545,000	-59,95	
1545,002	-59,81	
1545,004	-59,85	
1545,006	-59,81	
1545,008	-59,59	
1545,010	-59,62	
1545,012	-59,69	
1545,014	-59,76	
1545,016	-59,57	
1545,018	-59,85	
1545,020	-59,68	
1545,022	-59,49	
1545,024	-59,57	
1545,026	-59,68	
1545,028	-59,86	
1545,030	-59,95	
1545,032	-60,25	
1545,034	-60,44	
1545,036	-59,99	
1545,038	-59,64	
1545,040	-59,65	
1545,042	-59,66	
1545,044	-59,96	
1545,046	-59,57	
1545,048	-59,69	
1545,050	-59,52	
1545,052	-59,55	
1545,054	-60,09	
1545,056	-60,23	
1545,058	-59,82	
1545,060	-59,75	
1545,062	-59,86	
1545,064	-59,51	
1545,066	-59,56	
1545,068	-59,65	
1545,070	-59,61	
1545,072	-59,83	
1545,074	-60,36	
1545,076	-60,19	
1545,078	-59,82	
1545,080	-59,57	
1545,082	-59,48	
1545,084	-59,26	
1545,086	-59,27	
1545,088	-59,59	
1545,090	-59,70	
1545,092	-59,61	
1545,094	-59,77	
1545,096	-59,84	
1545,098	-59,89	
1545,100	-59,60	
1545,102	-59,86	
1545,104	-59,83	
1545,106	-59,74	
1545,108	-59,76	
1545,110	-59,77	
1545,112	-60,13	
1545,114	-59,82	
1545,116	-60,21	
1545,118	-59,34	
1545,120	-60,12	
1545,122	-59,65	
1545,124	-59,52	
1545,126	-59,91	
1545,128	-60,00	
1545,130	-59,97	
1545,132	-59,97	
1545,134	-59,89	
1545,136	-59,73	
1545,138	-59,74	
1545,140	-59,55	
1545,142	-59,96	
1545,144	-60,34	
1545,146	-60,34	
1545,148	-60,13	
1545,150	-59,74	
1545,152	-59,90	
1545,154	-60,35	
1545,156	-60,19	
1545,158	-59,58	
1545,160	-60,07	
1545,162	-59,14	
1545,164	-59,12	
1545,166	-59,37	
1545,168	-59,79	
1545,170	-59,94	
1545,172	-59,68	
1545,174	-59,72	
1545,176	-60,00	
1545,178	-59,96	
1545,180	-60,27	
1545,182	-60,24	
1545,184	-60,20	
1545,186	-60,03	
1545,188	-60,08	
1545,190	-59,95	
1545,192	-59,51	
1545,194	-59,50	
1545,196	-60,09	
1545,198	-59,85	
1545,200	-60,29	
1545,202	-59,92	
1545,204	-60,19	
1545,206	-60,34	
1545,208	-59,76	
1545,210	-59,50	
1545,212	-59,77	
1545,214	-59,89	
1545,216	-59,82	
1545,218	-60,36	
1545,220	-60,14	
1545,222	-59,55	
1545,224	-60,31	
1545,226	-60,49	
1545,228	-60,12	
1545,230	-59,81	
1545,232	-59,78	
1545,234	-59,93	
1545,236	-59,97	
1545,238	-60,18	
1545,240	-59,61	
1545,242	-60,15	
1545,244	-60,36	
1545,246	-59,96	
1545,248	-60,23	
1545,250	-60,24	
1545,252	-60,34	
1545,254	-60,61	
1545,256	-60,07	
1545,258	-60,29	
1545,260	-60,72	
1545,262	-60,32	
1545,264	-60,22	
1545,266	-59,85	
1545,268	-59,69	
1545,270	-59,71	
1545,272	-59,73	
1545,274	-60,30	
1545,276	-60,43	
1545,278	-60,23	
1545,280	-59,95	
1545,282	-59,72	
1545,284	-59,70	
1545,286	-59,85	
1545,288	-60,02	
1545,290	-60,23	
1545,292	-60,73	
1545,294	-60,98	
1545,296	-60,83	
1545,298	-60,87	
1545,300	-60,43	
1545,302	-59,59	
1545,304	-59,64	
1545,306	-59,87	
1545,308	-59,59	
1545,310	-59,41	
1545,312	-59,60	
1545,314	-59,74	
1545,316	-60,22	
1545,318	-60,33	
1545,320	-60,94	
1545,322	-60,50	
1545,324	-60,04	
1545,326	-60,09	
1545,328	-60,17	
1545,330	-60,10	
1545,332	-60,19	
1545,334	-59,76	
1545,336	-59,64	
1545,338	-60,15	
1545,340	-59,84	
1545,342	-59,89	
1545,344	-59,49	
1545,346	-59,92	
1545,348	-60,41	
1545,350	-60,19	
1545,352	-60,03	
1545,354	-60,38	
1545,356	-60,69	
1545,358	-60,22	
1545,360	-60,86	
1545,362	-60,09	
1545,364	-59,44	
1545,366	-59,81	
1545,368	-60,06	
1545,370	-59,88	
1545,372	-60,06	
1545,374	-60,12	
1545,376	-59,93	
1545,378	-59,91	
1545,380	-60,17	
1545,382	-60,34	
1545,384	-59,87	
1545,386	-60,33	
1545,388	-59,60	
1545,390	-59,90	
1545,392	-60,14	
1545,394	-61,14	
1545,396	-60,39	
1545,398	-60,03	
1545,400	-60,04	
1545,402	-59,95	
1545,404	-59,79	
1545,406	-59,79	
1545,408	-60,30	
1545,410	-60,58	
1545,412	-59,58	
1545,414	-60,04	
1545,416	-59,96	
1545,418	-59,76	
1545,420	-60,22	
1545,422	-60,18	
1545,424	-60,26	
1545,426	-60,30	
1545,428	-60,23	
1545,430	-60,18	
1545,432	-60,02	
1545,434	-60,13	
1545,436	-60,23	
1545,438	-60,62	
1545,440	-60,48	
1545,442	-59,38	
1545,444	-60,01	
1545,446	-60,36	
1545,448	-60,71	
1545,450	-60,35	
1545,452	-60,10	
1545,454	-59,94	
1545,456	-60,20	
1545,458	-60,67	
1545,460	-60,79	
1545,462	-60,84	
1545,464	-60,93	
1545,466	-60,52	
1545,468	-60,87	
1545,470	-60,49	
1545,472	-60,11	
1545,474	-60,13	
1545,476	-59,98	
1545,478	-59,89	
1545,480	-59,81	
1545,482	-59,83	
1545,484	-59,97	
1545,486	-60,11	
1545,488	-60,59	
1545,490	-59,70	
1545,492	-59,88	
1545,494	-60,19	
1545,496	-60,75	
1545,498	-60,62	
1545,500	-60,09	
1545,502	-60,43	
1545,504	-60,44	
1545,506	-59,98	
1545,508	-60,07	
1545,510	-60,49	
1545,512	-60,31	
1545,514	-60,39	
1545,516	-60,10	
1545,518	-60,30	
1545,520	-60,53	
1545,522	-60,37	
1545,524	-60,32	
1545,526	-60,09	
1545,528	-59,94	
1545,530	-60,01	
1545,532	-59,80	
1545,534	-59,78	
1545,536	-60,18	
1545,538	-60,26	
1545,540	-60,14	
1545,542	-59,97	
1545,544	-60,68	
1545,546	-60,71	
1545,548	-60,46	
1545,550	-59,80	
1545,552	-60,13	
1545,554	-60,26	
1545,556	-60,33	
1545,558	-60,39	
1545,560	-59,93	
1545,562	-59,92	
1545,564	-60,11	
1545,566	-59,84	
1545,568	-60,19	
1545,570	-60,99	
1545,572	-60,12	
1545,574	-60,00	
1545,576	-60,06	
1545,578	-59,68	
1545,580	-60,08	
1545,582	-60,19	
1545,584	-60,20	
1545,586	-60,89	
1545,588	-60,54	
1545,590	-60,39	
1545,592	-60,74	
1545,594	-60,35	
1545,596	-59,68	
1545,598	-60,44	
1545,600	-60,38	
1545,602	-60,38	
1545,604	-60,22	
1545,606	-59,96	
1545,608	-59,89	
1545,610	-59,95	
1545,612	-59,82	
1545,614	-59,98	
1545,616	-60,60	
1545,618	-60,62	
1545,620	-60,23	
1545,622	-60,32	
1545,624	-60,63	
1545,626	-60,63	
1545,628	-60,22	
1545,630	-60,84	
1545,632	-60,56	
1545,634	-60,42	
1545,636	-60,01	
1545,638	-61,10	
1545,640	-60,92	
1545,642	-60,41	
1545,644	-60,49	
1545,646	-60,07	
1545,648	-60,32	
1545,650	-60,01	
1545,652	-59,82	
1545,654	-59,78	
1545,656	-59,98	
1545,658	-60,28	
1545,660	-60,37	
1545,662	-60,70	
1545,664	-60,85	
1545,666	-60,90	
1545,668	-60,46	
1545,670	-60,75	
1545,672	-60,62	
1545,674	-60,08	
1545,676	-60,82	
1545,678	-59,86	
1545,680	-60,37	
1545,682	-59,49	
1545,684	-59,66	
1545,686	-60,35	
1545,688	-60,14	
1545,690	-59,79	
1545,692	-59,82	
1545,694	-59,98	
1545,696	-60,28	
1545,698	-60,83	
1545,700	-60,88	
1545,702	-60,20	
1545,704	-60,14	
1545,706	-60,38	
1545,708	-60,10	
1545,710	-60,18	
1545,712	-60,26	
1545,714	-60,19	
1545,716	-59,90	
1545,718	-59,45	
1545,720	-60,09	
1545,722	-60,36	
1545,724	-60,32	
1545,726	-60,26	
1545,728	-60,29	
1545,730	-60,21	
1545,732	-60,07	
1545,734	-60,46	
1545,736	-60,72	
1545,738	-60,27	
1545,740	-60,23	
1545,742	-60,53	
1545,744	-60,01	
1545,746	-59,99	
1545,748	-60,54	
1545,750	-60,16	
1545,752	-60,17	
1545,754	-60,65	
1545,756	-60,47	
1545,758	-59,95	
1545,760	-60,31	
1545,762	-60,57	
1545,764	-60,23	
1545,766	-60,07	
1545,768	-59,73	
1545,770	-59,96	
1545,772	-60,56	
1545,774	-60,37	
1545,776	-60,14	
1545,778	-59,84	
1545,780	-59,81	
1545,782	-60,28	
1545,784	-59,93	
1545,786	-60,69	
1545,788	-60,35	
1545,790	-59,75	
1545,792	-59,71	
1545,794	-59,95	
1545,796	-60,18	
1545,798	-60,50	
1545,800	-60,31	
1545,802	-59,92	
1545,804	-60,31	
1545,806	-60,53	
1545,808	-60,89	
1545,810	-60,49	
1545,812	-60,19	
1545,814	-60,41	
1545,816	-60,11	
1545,818	-60,22	
1545,820	-59,89	
1545,822	-59,92	
1545,824	-60,15	
1545,826	-60,19	
1545,828	-59,98	
1545,830	-60,03	
1545,832	-60,37	
1545,834	-60,05	
1545,836	-59,42	
1545,838	-59,97	
1545,840	-60,28	
1545,842	-59,91	
1545,844	-59,90	
1545,846	-59,88	
1545,848	-60,07	
1545,850	-59,88	
1545,852	-59,71	
1545,854	-59,80	
1545,856	-60,15	
1545,858	-60,63	
1545,860	-60,54	
1545,862	-60,34	
1545,864	-60,03	
1545,866	-59,40	
1545,868	-60,77	
1545,870	-60,11	
1545,872	-59,87	
1545,874	-59,73	
1545,876	-59,97	
1545,878	-60,20	
1545,880	-59,86	
1545,882	-59,73	
1545,884	-59,52	
1545,886	-59,34	
1545,888	-59,64	
1545,890	-59,83	
1545,892	-59,92	
1545,894	-60,26	
1545,896	-60,39	
1545,898	-60,34	
1545,900	-60,16	
1545,902	-59,71	
1545,904	-60,05	
1545,906	-59,10	
1545,908	-59,56	
1545,910	-60,20	
1545,912	-60,07	
1545,914	-59,89	
1545,916	-59,90	
1545,918	-60,24	
1545,920	-59,81	
1545,922	-59,92	
1545,924	-59,76	
1545,926	-59,79	
1545,928	-59,60	
1545,930	-59,26	
1545,932	-59,49	
1545,934	-59,72	
1545,936	-59,36	
1545,938	-59,25	
1545,940	-59,62	
1545,942	-59,56	
1545,944	-59,95	
1545,946	-59,97	
1545,948	-59,54	
1545,950	-59,26	
1545,952	-59,43	
1545,954	-60,22	
1545,956	-60,22	
1545,958	-60,04	
1545,960	-59,79	
1545,962	-59,95	
1545,964	-59,59	
1545,966	-60,00	
1545,968	-59,62	
1545,970	-59,55	
1545,972	-59,32	
1545,974	-59,42	
1545,976	-59,83	
1545,978	-59,92	
1545,980	-59,68	
1545,982	-59,56	
1545,984	-59,48	
1545,986	-59,16	
1545,988	-59,33	
1545,990	-59,84	
1545,992	-59,30	
1545,994	-59,68	
1545,996	-59,63	
1545,998	-59,54	
1546,000	-59,33	
1546,002	-59,47	
1546,004	-59,63	
1546,006	-59,16	
1546,008	-59,51	
1546,010	-59,55	
1546,012	-59,56	
1546,014	-59,61	
1546,016	-59,77	
1546,018	-59,79	
1546,020	-59,73	
1546,022	-59,74	
1546,024	-59,59	
1546,026	-60,06	
1546,028	-59,99	
1546,030	-59,34	
1546,032	-59,07	
1546,034	-59,45	
1546,036	-59,91	
1546,038	-59,13	
1546,040	-59,22	
1546,042	-59,34	
1546,044	-59,46	
1546,046	-59,64	
1546,048	-59,73	
1546,050	-59,77	
1546,052	-59,49	
1546,054	-59,60	
1546,056	-59,04	
1546,058	-59,72	
1546,060	-59,28	
1546,062	-59,33	
1546,064	-58,96	
1546,066	-59,30	
1546,068	-59,21	
1546,070	-59,47	
1546,072	-59,75	
1546,074	-59,54	
1546,076	-59,31	
1546,078	-58,98	
1546,080	-59,27	
1546,082	-59,27	
1546,084	-58,91	
1546,086	-58,96	
1546,088	-59,02	
1546,090	-59,37	
1546,092	-59,17	
1546,094	-59,10	
1546,096	-59,21	
1546,098	-59,39	
1546,100	-59,44	
1546,102	-59,26	
1546,104	-59,32	
1546,106	-59,17	
1546,108	-59,05	
1546,110	-58,73	
1546,112	-59,28	
1546,114	-59,07	
1546,116	-58,83	
1546,118	-59,08	
1546,120	-59,48	
1546,122	-59,47	
1546,124	-59,25	
1546,126	-59,25	
1546,128	-59,23	
1546,130	-58,65	
1546,132	-58,75	
1546,134	-58,97	
1546,136	-59,15	
1546,138	-59,00	
1546,140	-59,07	
1546,142	-58,97	
1546,144	-58,89	
1546,146	-59,04	
1546,148	-59,03	
1546,150	-59,10	
1546,152	-58,87	
1546,154	-58,77	
1546,156	-59,01	
1546,158	-58,63	
1546,160	-58,50	
1546,162	-58,81	
1546,164	-59,07	
1546,166	-58,94	
1546,168	-58,78	
1546,170	-58,99	
1546,172	-59,47	
1546,174	-59,33	
1546,176	-58,62	
1546,178	-58,66	
1546,180	-58,59	
1546,182	-58,32	
1546,184	-58,41	
1546,186	-59,03	
1546,188	-59,32	
1546,190	-58,72	
1546,192	-58,30	
1546,194	-58,25	
1546,196	-59,08	
1546,198	-58,92	
1546,200	-58,75	
1546,202	-58,89	
1546,204	-59,03	
1546,206	-58,88	
1546,208	-58,92	
1546,210	-59,20	
1546,212	-58,80	
1546,214	-59,08	
1546,216	-58,89	
1546,218	-58,63	
1546,220	-58,95	
1546,222	-58,26	
1546,224	-58,21	
1546,226	-58,56	
1546,228	-58,46	
1546,230	-58,42	
1546,232	-58,73	
1546,234	-58,55	
1546,236	-58,63	
1546,238	-58,72	
1546,240	-59,08	
1546,242	-58,51	
1546,244	-58,37	
1546,246	-58,17	
1546,248	-58,06	
1546,250	-58,46	
1546,252	-58,65	
1546,254	-58,69	
1546,256	-58,60	
1546,258	-58,40	
1546,260	-58,64	
1546,262	-58,53	
1546,264	-58,27	
1546,266	-58,38	
1546,268	-58,64	
1546,270	-58,16	
1546,272	-57,98	
1546,274	-58,06	
1546,276	-58,08	
1546,278	-58,30	
1546,280	-58,37	
1546,282	-58,21	
1546,284	-58,36	
1546,286	-58,42	
1546,288	-58,37	
1546,290	-58,57	
1546,292	-58,44	
1546,294	-58,39	
1546,296	-58,24	
1546,298	-58,44	
1546,300	-58,24	
1546,302	-58,03	
1546,304	-58,19	
1546,306	-58,47	
1546,308	-58,43	
1546,310	-58,16	
1546,312	-58,52	
1546,314	-58,61	
1546,316	-58,23	
1546,318	-58,36	
1546,320	-58,40	
1546,322	-58,16	
1546,324	-57,88	
1546,326	-58,13	
1546,328	-58,41	
1546,330	-58,24	
1546,332	-58,15	
1546,334	-58,64	
1546,336	-58,23	
1546,338	-58,29	
1546,340	-58,60	
1546,342	-58,16	
1546,344	-58,29	
1546,346	-58,23	
1546,348	-58,08	
1546,350	-58,00	
1546,352	-57,86	
1546,354	-58,37	
1546,356	-58,80	
1546,358	-58,69	
1546,360	-58,57	
1546,362	-58,02	
1546,364	-58,02	
1546,366	-58,16	
1546,368	-57,97	
1546,370	-57,70	
1546,372	-57,56	
1546,374	-58,00	
1546,376	-58,10	
1546,378	-57,98	
1546,380	-57,91	
1546,382	-57,94	
1546,384	-58,24	
1546,386	-58,41	
1546,388	-58,24	
1546,390	-58,19	
1546,392	-57,99	
1546,394	-57,65	
1546,396	-57,75	
1546,398	-58,00	
1546,400	-57,89	
1546,402	-58,08	
1546,404	-58,20	
1546,406	-57,95	
1546,408	-57,69	
1546,410	-57,72	
1546,412	-57,95	
1546,414	-58,37	
1546,416	-58,01	
1546,418	-57,88	
1546,420	-57,73	
1546,422	-57,90	
1546,424	-57,93	
1546,426	-57,89	
1546,428	-57,97	
1546,430	-57,90	
1546,432	-57,76	
1546,434	-57,61	
1546,436	-58,06	
1546,438	-58,12	
1546,440	-58,10	
1546,442	-57,75	
1546,444	-57,72	
1546,446	-57,75	
1546,448	-57,70	
1546,450	-57,74	
1546,452	-57,88	
1546,454	-57,90	
1546,456	-58,14	
1546,458	-57,84	
1546,460	-57,80	
1546,462	-57,81	
1546,464	-57,82	
1546,466	-58,04	
1546,468	-58,23	
1546,470	-58,49	
1546,472	-59,00	
1546,474	-58,30	
1546,476	-58,24	
1546,478	-57,30	
1546,480	-57,51	
1546,482	-58,04	
1546,484	-57,88	
1546,486	-57,72	
1546,488	-57,88	
1546,490	-57,97	
1546,492	-57,81	
1546,494	-58,09	
1546,496	-58,57	
1546,498	-57,97	
1546,500	-58,15	
1546,502	-57,97	
1546,504	-57,83	
1546,506	-57,71	
1546,508	-57,71	
1546,510	-57,82	
1546,512	-57,78	
1546,514	-57,81	
1546,516	-58,04	
1546,518	-57,99	
1546,520	-58,15	
1546,522	-58,29	
1546,524	-58,21	
1546,526	-58,19	
1546,528	-58,13	
1546,530	-57,81	
1546,532	-58,08	
1546,534	-57,69	
1546,536	-58,13	
1546,538	-58,02	
1546,540	-57,93	
1546,542	-57,69	
1546,544	-57,63	
1546,546	-57,78	
1546,548	-57,76	
1546,550	-58,05	
1546,552	-58,01	
1546,554	-58,02	
1546,556	-57,94	
1546,558	-58,06	
1546,560	-57,91	
1546,562	-57,93	
1546,564	-58,16	
1546,566	-58,14	
1546,568	-57,88	
1546,570	-57,95	
1546,572	-58,43	
1546,574	-58,19	
1546,576	-58,03	
1546,578	-58,05	
1546,580	-57,99	
1546,582	-57,99	
1546,584	-58,05	
1546,586	-57,95	
1546,588	-57,79	
1546,590	-57,88	
1546,592	-58,17	
1546,594	-57,89	
1546,596	-58,35	
1546,598	-58,18	
1546,600	-57,93	
1546,602	-57,82	
1546,604	-57,92	
1546,606	-57,90	
1546,608	-57,79	
1546,610	-57,87	
1546,612	-58,06	
1546,614	-58,21	
1546,616	-58,09	
1546,618	-57,63	
1546,620	-58,15	
1546,622	-58,09	
1546,624	-58,28	
1546,626	-58,25	
1546,628	-58,09	
1546,630	-58,18	
1546,632	-58,11	
1546,634	-58,13	
1546,636	-58,46	
1546,638	-58,23	
1546,640	-58,16	
1546,642	-58,11	
1546,644	-58,60	
1546,646	-58,38	
1546,648	-58,31	
1546,650	-58,18	
1546,652	-58,20	
1546,654	-57,90	
1546,656	-57,63	
1546,658	-57,96	
1546,660	-58,28	
1546,662	-58,49	
1546,664	-58,41	
1546,666	-58,15	
1546,668	-58,14	
1546,670	-58,21	
1546,672	-57,62	
1546,674	-57,85	
1546,676	-58,22	
1546,678	-58,14	
1546,680	-58,24	
1546,682	-58,40	
1546,684	-57,94	
1546,686	-58,00	
1546,688	-58,18	
1546,690	-58,43	
1546,692	-58,51	
1546,694	-58,61	
1546,696	-58,39	
1546,698	-58,25	
1546,700	-58,43	
1546,702	-57,87	
1546,704	-58,01	
1546,706	-58,10	
1546,708	-58,12	
1546,710	-58,15	
1546,712	-58,61	
1546,714	-58,75	
1546,716	-58,77	
1546,718	-59,02	
1546,720	-59,03	
1546,722	-57,92	
1546,724	-57,71	
1546,726	-58,47	
1546,728	-58,62	
1546,730	-58,76	
1546,732	-58,57	
1546,734	-58,61	
1546,736	-58,44	
1546,738	-58,16	
1546,740	-58,41	
1546,742	-58,22	
1546,744	-58,86	
1546,746	-59,03	
1546,748	-58,40	
1546,750	-58,41	
1546,752	-58,83	
1546,754	-58,64	
1546,756	-58,28	
1546,758	-58,40	
1546,760	-58,60	
1546,762	-58,59	
1546,764	-58,64	
1546,766	-58,29	
1546,768	-58,54	
1546,770	-58,91	
1546,772	-58,52	
1546,774	-58,55	
1546,776	-58,71	
1546,778	-58,23	
1546,780	-58,90	
1546,782	-58,99	
1546,784	-58,92	
1546,786	-59,28	
1546,788	-59,34	
1546,790	-58,90	
1546,792	-58,61	
1546,794	-58,89	
1546,796	-58,90	
1546,798	-58,84	
1546,800	-58,68	
1546,802	-58,42	
1546,804	-58,64	
1546,806	-58,85	
1546,808	-58,89	
1546,810	-59,29	
1546,812	-59,32	
1546,814	-58,88	
1546,816	-58,52	
1546,818	-58,38	
1546,820	-58,48	
1546,822	-58,84	
1546,824	-59,04	
1546,826	-58,84	
1546,828	-58,92	
1546,830	-58,94	
1546,832	-58,95	
1546,834	-58,94	
1546,836	-58,70	
1546,838	-59,00	
1546,840	-59,61	
1546,842	-58,71	
1546,844	-58,78	
1546,846	-58,98	
1546,848	-59,13	
1546,850	-59,06	
1546,852	-59,43	
1546,854	-59,56	
1546,856	-59,15	
1546,858	-58,93	
1546,860	-58,78	
1546,862	-58,72	
1546,864	-58,63	
1546,866	-59,00	
1546,868	-58,92	
1546,870	-59,50	
1546,872	-59,29	
1546,874	-60,41	
1546,876	-58,98	
1546,878	-58,96	
1546,880	-59,14	
1546,882	-58,93	
1546,884	-59,30	
1546,886	-59,17	
1546,888	-59,21	
1546,890	-59,53	
1546,892	-59,44	
1546,894	-59,46	
1546,896	-59,54	
1546,898	-59,73	
1546,900	-59,29	
1546,902	-59,25	
1546,904	-59,69	
1546,906	-59,20	
1546,908	-59,14	
1546,910	-59,78	
1546,912	-59,91	
1546,914	-58,77	
1546,916	-59,02	
1546,918	-59,43	
1546,920	-59,50	
1546,922	-59,03	
1546,924	-58,94	
1546,926	-58,96	
1546,928	-59,12	
1546,930	-59,49	
1546,932	-59,66	
1546,934	-59,39	
1546,936	-59,26	
1546,938	-59,57	
1546,940	-59,78	
1546,942	-59,76	
1546,944	-59,41	
1546,946	-58,90	
1546,948	-60,25	
1546,950	-59,26	
1546,952	-59,93	
1546,954	-59,50	
1546,956	-59,25	
1546,958	-59,89	
1546,960	-59,60	
1546,962	-59,52	
1546,964	-59,47	
1546,966	-59,39	
1546,968	-59,34	
1546,970	-59,42	
1546,972	-59,59	
1546,974	-59,40	
1546,976	-59,64	
1546,978	-60,02	
1546,980	-60,16	
1546,982	-59,58	
1546,984	-59,50	
1546,986	-59,94	
1546,988	-60,65	
1546,990	-59,37	
1546,992	-59,52	
1546,994	-59,59	
1546,996	-59,59	
1546,998	-59,70	
1547,000	-59,60	
1547,002	-59,70	
1547,004	-59,90	
1547,006	-60,02	
1547,008	-59,87	
1547,010	-59,96	
1547,012	-59,82	
1547,014	-59,63	
1547,016	-59,77	
1547,018	-59,83	
1547,020	-60,12	
1547,022	-60,36	
1547,024	-59,90	
1547,026	-60,15	
1547,028	-60,56	
1547,030	-60,00	
1547,032	-59,94	
1547,034	-59,73	
1547,036	-59,26	
1547,038	-59,54	
1547,040	-60,02	
1547,042	-59,72	
1547,044	-60,01	
1547,046	-60,00	
1547,048	-59,99	
1547,050	-59,89	
1547,052	-59,75	
1547,054	-59,70	
1547,056	-59,77	
1547,058	-59,86	
1547,060	-59,94	
1547,062	-60,12	
1547,064	-60,33	
1547,066	-60,44	
1547,068	-60,35	
1547,070	-59,65	
1547,072	-60,39	
1547,074	-59,78	
1547,076	-59,64	
1547,078	-60,46	
1547,080	-60,69	
1547,082	-60,11	
1547,084	-60,10	
1547,086	-59,98	
1547,088	-60,07	
1547,090	-59,74	
1547,092	-60,47	
1547,094	-60,35	
1547,096	-60,21	
1547,098	-60,62	
1547,100	-60,25	
1547,102	-60,25	
1547,104	-60,54	
1547,106	-59,92	
1547,108	-59,94	
1547,110	-60,93	
1547,112	-61,18	
1547,114	-60,44	
1547,116	-60,42	
1547,118	-60,55	
1547,120	-59,73	
1547,122	-59,80	
1547,124	-60,52	
1547,126	-59,97	
1547,128	-59,67	
1547,130	-60,24	
1547,132	-59,99	
1547,134	-60,20	
1547,136	-60,52	
1547,138	-60,64	
1547,140	-60,02	
1547,142	-59,91	
1547,144	-60,32	
1547,146	-60,73	
1547,148	-60,90	
1547,150	-60,52	
1547,152	-60,13	
1547,154	-60,34	
1547,156	-60,50	
1547,158	-60,75	
1547,160	-60,74	
1547,162	-60,17	
1547,164	-60,25	
1547,166	-60,42	
1547,168	-60,56	
1547,170	-59,95	
1547,172	-60,20	
1547,174	-59,85	
1547,176	-60,65	
1547,178	-60,59	
1547,180	-60,24	
1547,182	-60,83	
1547,184	-60,12	
1547,186	-60,16	
1547,188	-60,99	
1547,190	-61,07	
1547,192	-60,89	
1547,194	-61,06	
1547,196	-61,00	
1547,198	-60,79	
1547,200	-60,95	
1547,202	-60,68	
1547,204	-60,51	
1547,206	-60,09	
1547,208	-60,65	
1547,210	-59,86	
1547,212	-60,04	
1547,214	-60,44	
1547,216	-60,63	
1547,218	-60,84	
1547,220	-60,66	
1547,222	-60,31	
1547,224	-60,37	
1547,226	-60,82	
1547,228	-60,84	
1547,230	-60,68	
1547,232	-60,69	
1547,234	-61,31	
1547,236	-60,88	
1547,238	-60,22	
1547,240	-60,63	
1547,242	-61,18	
1547,244	-60,71	
1547,246	-60,40	
1547,248	-61,21	
1547,250	-61,01	
1547,252	-60,55	
1547,254	-60,32	
1547,256	-60,58	
1547,258	-61,05	
1547,260	-61,32	
1547,262	-61,22	
1547,264	-60,92	
1547,266	-61,18	
1547,268	-60,17	
1547,270	-60,65	
1547,272	-60,84	
1547,274	-60,72	
1547,276	-60,48	
1547,278	-60,80	
1547,280	-61,21	
1547,282	-61,10	
1547,284	-60,34	
1547,286	-60,14	
1547,288	-60,82	
1547,290	-60,65	
1547,292	-61,34	
1547,294	-61,42	
1547,296	-60,39	
1547,298	-61,73	
1547,300	-60,60	
1547,302	-60,90	
1547,304	-60,70	
1547,306	-60,77	
1547,308	-60,71	
1547,310	-60,80	
1547,312	-61,07	
1547,314	-60,89	
1547,316	-61,17	
1547,318	-60,95	
1547,320	-61,34	
1547,322	-60,60	
1547,324	-60,84	
1547,326	-61,25	
1547,328	-61,44	
1547,330	-60,75	
1547,332	-60,82	
1547,334	-61,22	
1547,336	-61,27	
1547,338	-61,30	
1547,340	-61,17	
1547,342	-61,02	
1547,344	-61,62	
1547,346	-60,76	
1547,348	-60,36	
1547,350	-61,03	
1547,352	-61,15	
1547,354	-61,00	
1547,356	-60,97	
1547,358	-60,91	
1547,360	-61,09	
1547,362	-61,34	
1547,364	-61,54	
1547,366	-61,58	
1547,368	-61,45	
1547,370	-61,71	
1547,372	-61,54	
1547,374	-60,69	
1547,376	-60,95	
1547,378	-61,69	
1547,380	-61,06	
1547,382	-60,60	
1547,384	-60,80	
1547,386	-61,65	
1547,388	-62,63	
1547,390	-60,95	
1547,392	-60,76	
1547,394	-60,53	
1547,396	-61,11	
1547,398	-61,58	
1547,400	-60,76	
1547,402	-61,61	
1547,404	-61,20	
1547,406	-61,08	
1547,408	-61,21	
1547,410	-61,25	
1547,412	-61,35	
1547,414	-61,58	
1547,416	-61,62	
1547,418	-61,50	
1547,420	-61,47	
1547,422	-61,05	
1547,424	-61,78	
1547,426	-61,32	
1547,428	-60,29	
1547,430	-60,49	
1547,432	-60,93	
1547,434	-61,02	
1547,436	-61,10	
1547,438	-61,17	
1547,440	-61,05	
1547,442	-61,37	
1547,444	-61,41	
1547,446	-62,12	
1547,448	-61,97	
1547,450	-61,44	
1547,452	-61,48	
1547,454	-61,46	
1547,456	-61,28	
1547,458	-61,16	
1547,460	-61,39	
1547,462	-61,85	
1547,464	-62,03	
1547,466	-61,84	
1547,468	-62,03	
1547,470	-61,55	
1547,472	-60,93	
1547,474	-60,85	
1547,476	-60,98	
1547,478	-60,85	
1547,480	-60,80	
1547,482	-61,07	
1547,484	-61,76	
1547,486	-61,79	
1547,488	-62,10	
1547,490	-61,75	
1547,492	-61,39	
1547,494	-61,08	
1547,496	-60,98	
1547,498	-61,03	
1547,500	-61,33	
1547,502	-61,13	
1547,504	-61,62	
1547,506	-61,01	
1547,508	-61,15	
1547,510	-60,88	
1547,512	-61,01	
1547,514	-61,37	
1547,516	-61,26	
1547,518	-61,85	
1547,520	-63,37	
1547,522	-61,67	
1547,524	-61,57	
1547,526	-60,79	
1547,528	-60,81	
1547,530	-60,58	
1547,532	-60,87	
1547,534	-61,55	
1547,536	-61,77	
1547,538	-62,13	
1547,540	-61,24	
1547,542	-61,07	
1547,544	-60,69	
1547,546	-60,83	
1547,548	-60,91	
1547,550	-61,44	
1547,552	-62,01	
1547,554	-61,65	
1547,556	-61,06	
1547,558	-61,31	
1547,560	-60,87	
1547,562	-61,47	
1547,564	-61,79	
1547,566	-61,00	
1547,568	-61,01	
1547,570	-61,62	
1547,572	-62,40	
1547,574	-62,21	
1547,576	-61,68	
1547,578	-62,47	
1547,580	-60,73	
1547,582	-60,94	
1547,584	-61,93	
1547,586	-61,52	
1547,588	-60,93	
1547,590	-61,00	
1547,592	-61,57	
1547,594	-61,97	
1547,596	-61,97	
1547,598	-61,99	
1547,600	-62,00	
1547,602	-62,67	
1547,604	-62,28	
1547,606	-61,15	
1547,608	-60,82	
1547,610	-61,30	
1547,612	-61,14	
1547,614	-61,46	
1547,616	-61,71	
1547,618	-61,16	
1547,620	-61,68	
1547,622	-61,26	
1547,624	-61,68	
1547,626	-62,26	
1547,628	-61,95	
1547,630	-61,70	
1547,632	-61,05	
1547,634	-60,77	
1547,636	-60,99	
1547,638	-61,44	
1547,640	-61,87	
1547,642	-61,71	
1547,644	-61,35	
1547,646	-61,82	
1547,648	-61,60	
1547,650	-60,75	
1547,652	-61,25	
1547,654	-61,23	
1547,656	-61,65	
1547,658	-62,30	
1547,660	-62,03	
1547,662	-61,75	
1547,664	-61,40	
1547,666	-61,21	
1547,668	-61,79	
1547,670	-61,79	
1547,672	-61,82	
1547,674	-61,64	
1547,676	-61,45	
1547,678	-60,87	
1547,680	-60,88	
1547,682	-61,25	
1547,684	-61,11	
1547,686	-61,36	
1547,688	-60,85	
1547,690	-60,97	
1547,692	-61,84	
1547,694	-61,46	
1547,696	-61,60	
1547,698	-62,03	
1547,700	-62,01	
1547,702	-61,76	
1547,704	-61,69	
1547,706	-61,54	
1547,708	-61,94	
1547,710	-62,15	
1547,712	-62,63	
1547,714	-61,42	
1547,716	-61,19	
1547,718	-60,88	
1547,720	-62,11	
1547,722	-61,61	
1547,724	-61,50	
1547,726	-61,67	
1547,728	-61,52	
1547,730	-61,96	
1547,732	-61,65	
1547,734	-61,03	
1547,736	-61,84	
1547,738	-61,06	
1547,740	-61,59	
1547,742	-60,78	
1547,744	-60,97	
1547,746	-61,18	
1547,748	-61,20	
1547,750	-61,38	
1547,752	-61,74	
1547,754	-62,06	
1547,756	-62,76	
1547,758	-62,87	
1547,760	-61,11	
1547,762	-62,40	
1547,764	-62,16	
1547,766	-61,81	
1547,768	-61,86	
1547,770	-61,87	
1547,772	-61,20	
1547,774	-61,05	
1547,776	-61,27	
1547,778	-61,82	
1547,780	-62,36	
1547,782	-61,78	
1547,784	-61,05	
1547,786	-61,41	
1547,788	-61,04	
1547,790	-61,07	
1547,792	-62,44	
1547,794	-61,61	
1547,796	-61,45	
1547,798	-61,30	
1547,800	-61,61	
1547,802	-61,80	
1547,804	-61,50	
1547,806	-61,10	
1547,808	-60,90	
1547,810	-61,14	
1547,812	-60,94	
1547,814	-61,12	
1547,816	-61,82	
1547,818	-61,37	
1547,820	-61,61	
1547,822	-61,64	
1547,824	-61,90	
1547,826	-61,68	
1547,828	-61,01	
1547,830	-61,00	
1547,832	-61,70	
1547,834	-61,13	
1547,836	-61,24	
1547,838	-61,37	
1547,840	-61,42	
1547,842	-61,21	
1547,844	-61,41	
1547,846	-61,58	
1547,848	-61,68	
1547,850	-62,04	
1547,852	-62,09	
1547,854	-61,68	
1547,856	-61,28	
1547,858	-61,41	
1547,860	-61,57	
1547,862	-60,98	
1547,864	-61,58	
1547,866	-60,98	
1547,868	-62,79	
1547,870	-61,11	
1547,872	-61,89	
1547,874	-61,86	
1547,876	-61,73	
1547,878	-61,48	
1547,880	-62,18	
1547,882	-62,23	
1547,884	-61,53	
1547,886	-61,26	
1547,888	-61,65	
1547,890	-61,52	
1547,892	-60,79	
1547,894	-61,12	
1547,896	-60,87	
1547,898	-60,98	
1547,900	-61,60	
1547,902	-61,72	
1547,904	-61,18	
1547,906	-62,47	
1547,908	-62,05	
1547,910	-61,26	
1547,912	-61,70	
1547,914	-60,86	
1547,916	-60,77	
1547,918	-61,50	
1547,920	-61,42	
1547,922	-61,33	
1547,924	-61,84	
1547,926	-61,54	
1547,928	-61,16	
1547,930	-61,06	
1547,932	-60,74	
1547,934	-61,10	
1547,936	-61,50	
1547,938	-61,27	
1547,940	-61,76	
1547,942	-61,52	
1547,944	-60,60	
1547,946	-60,80	
1547,948	-61,40	
1547,950	-60,59	
1547,952	-60,48	
1547,954	-61,30	
1547,956	-61,12	
1547,958	-61,10	
1547,960	-61,43	
1547,962	-60,58	
1547,964	-60,35	
1547,966	-60,74	
1547,968	-61,03	
1547,970	-61,54	
1547,972	-61,26	
1547,974	-61,89	
1547,976	-61,56	
1547,978	-61,02	
1547,980	-60,74	
1547,982	-60,93	
1547,984	-61,26	
1547,986	-60,47	
1547,988	-60,57	
1547,990	-60,65	
1547,992	-61,00	
1547,994	-61,04	
1547,996	-60,81	
1547,998	-60,86	
1548,000	-61,45	
1548,002	-61,78	
1548,004	-61,46	
1548,006	-61,39	
1548,008	-60,37	
1548,010	-60,61	
1548,012	-61,06	
1548,014	-62,11	
1548,016	-60,98	
1548,018	-61,37	
1548,020	-61,11	
1548,022	-60,95	
1548,024	-60,95	
1548,026	-60,96	
1548,028	-60,73	
1548,030	-60,62	
1548,032	-60,77	
1548,034	-60,66	
1548,036	-60,42	
1548,038	-60,87	
1548,040	-61,04	
1548,042	-61,22	
1548,044	-60,50	
1548,046	-61,70	
1548,048	-62,40	
1548,050	-61,05	
1548,052	-60,67	
1548,054	-61,19	
1548,056	-61,17	
1548,058	-60,69	
1548,060	-60,98	
1548,062	-61,46	
1548,064	-61,01	
1548,066	-61,31	
1548,068	-61,04	
1548,070	-60,83	
1548,072	-60,47	
1548,074	-60,22	
1548,076	-60,88	
1548,078	-61,23	
1548,080	-60,84	
1548,082	-60,57	
1548,084	-60,69	
1548,086	-61,02	
1548,088	-60,93	
1548,090	-61,23	
1548,092	-61,17	
1548,094	-60,91	
1548,096	-61,22	
1548,098	-60,45	
1548,100	-60,19	
1548,102	-60,31	
1548,104	-60,53	
1548,106	-60,74	
1548,108	-61,12	
1548,110	-61,33	
1548,112	-60,81	
1548,114	-60,83	
1548,116	-61,03	
1548,118	-60,80	
1548,120	-60,38	
1548,122	-60,11	
1548,124	-60,36	
1548,126	-60,68	
1548,128	-60,87	
1548,130	-60,12	
1548,132	-60,27	
1548,134	-60,43	
1548,136	-60,14	
1548,138	-60,21	
1548,140	-60,64	
1548,142	-60,78	
1548,144	-60,29	
1548,146	-60,21	
1548,148	-60,92	
1548,150	-60,69	
1548,152	-60,41	
1548,154	-60,55	
1548,156	-60,44	
1548,158	-60,56	
1548,160	-60,41	
1548,162	-60,25	
1548,164	-60,12	
1548,166	-60,30	
1548,168	-60,71	
1548,170	-60,59	
1548,172	-60,20	
1548,174	-59,79	
1548,176	-60,61	
1548,178	-60,63	
1548,180	-60,38	
1548,182	-60,59	
1548,184	-60,17	
1548,186	-61,21	
1548,188	-60,77	
1548,190	-60,46	
1548,192	-60,41	
1548,194	-60,13	
1548,196	-60,13	
1548,198	-60,19	
1548,200	-60,25	
1548,202	-60,54	
1548,204	-60,22	
1548,206	-59,68	
1548,208	-60,00	
1548,210	-60,50	
1548,212	-60,05	
1548,214	-60,07	
1548,216	-60,37	
1548,218	-60,21	
1548,220	-60,36	
1548,222	-60,72	
1548,224	-60,28	
1548,226	-59,68	
1548,228	-59,97	
1548,230	-60,06	
1548,232	-59,74	
1548,234	-60,62	
1548,236	-60,12	
1548,238	-60,82	
1548,240	-60,63	
1548,242	-60,24	
1548,244	-59,97	
1548,246	-59,94	
1548,248	-59,81	
1548,250	-59,67	
1548,252	-59,77	
1548,254	-59,74	
1548,256	-59,74	
1548,258	-59,77	
1548,260	-59,62	
1548,262	-60,52	
1548,264	-60,21	
1548,266	-59,86	
1548,268	-59,95	
1548,270	-59,94	
1548,272	-59,82	
1548,274	-59,85	
1548,276	-59,96	
1548,278	-59,99	
1548,280	-59,51	
1548,282	-59,81	
1548,284	-59,43	
1548,286	-59,32	
1548,288	-59,77	
1548,290	-59,20	
1548,292	-59,46	
1548,294	-59,85	
1548,296	-60,21	
1548,298	-60,51	
1548,300	-60,33	
1548,302	-60,15	
1548,304	-59,87	
1548,306	-59,59	
1548,308	-58,93	
1548,310	-59,73	
1548,312	-60,29	
1548,314	-60,17	
1548,316	-59,83	
1548,318	-59,93	
1548,320	-59,99	
1548,322	-59,51	
1548,324	-59,02	
1548,326	-58,95	
1548,328	-59,48	
1548,330	-59,16	
1548,332	-59,95	
1548,334	-59,94	
1548,336	-59,41	
1548,338	-59,79	
1548,340	-60,02	
1548,342	-59,47	
1548,344	-59,43	
1548,346	-59,97	
1548,348	-59,60	
1548,350	-59,46	
1548,352	-59,74	
1548,354	-59,41	
1548,356	-59,49	
1548,358	-59,60	
1548,360	-59,21	
1548,362	-59,16	
1548,364	-59,32	
1548,366	-59,63	
1548,368	-59,62	
1548,370	-59,12	
1548,372	-59,10	
1548,374	-59,06	
1548,376	-58,68	
1548,378	-58,89	
1548,380	-59,09	
1548,382	-58,90	
1548,384	-59,05	
1548,386	-59,35	
1548,388	-59,44	
1548,390	-59,25	
1548,392	-59,09	
1548,394	-59,27	
1548,396	-59,77	
1548,398	-59,64	
1548,400	-58,66	
1548,402	-58,84	
1548,404	-59,11	
1548,406	-59,42	
1548,408	-59,20	
1548,410	-58,83	
1548,412	-58,88	
1548,414	-59,06	
1548,416	-58,66	
1548,418	-59,00	
1548,420	-58,43	
1548,422	-58,85	
1548,424	-58,73	
1548,426	-58,80	
1548,428	-58,88	
1548,430	-58,73	
1548,432	-58,57	
1548,434	-58,60	
1548,436	-58,57	
1548,438	-58,80	
1548,440	-58,90	
1548,442	-58,79	
1548,444	-58,44	
1548,446	-58,58	
1548,448	-58,63	
1548,450	-58,67	
1548,452	-58,77	
1548,454	-58,47	
1548,456	-58,24	
1548,458	-58,31	
1548,460	-58,42	
1548,462	-58,76	
1548,464	-58,69	
1548,466	-58,44	
1548,468	-58,19	
1548,470	-58,09	
1548,472	-58,30	
1548,474	-58,77	
1548,476	-58,49	
1548,478	-58,60	
1548,480	-58,72	
1548,482	-58,57	
1548,484	-58,28	
1548,486	-58,07	
1548,488	-58,14	
1548,490	-58,23	
1548,492	-58,12	
1548,494	-58,55	
1548,496	-58,19	
1548,498	-58,75	
1548,500	-58,76	
1548,502	-58,46	
1548,504	-58,16	
1548,506	-58,06	
1548,508	-58,18	
1548,510	-58,26	
1548,512	-58,21	
1548,514	-57,63	
1548,516	-57,90	
1548,518	-58,08	
1548,520	-57,95	
1548,522	-57,96	
1548,524	-58,08	
1548,526	-58,00	
1548,528	-57,74	
1548,530	-58,25	
1548,532	-58,02	
1548,534	-58,06	
1548,536	-58,21	
1548,538	-57,85	
1548,540	-57,65	
1548,542	-57,86	
1548,544	-57,99	
1548,546	-57,92	
1548,548	-58,02	
1548,550	-57,73	
1548,552	-57,73	
1548,554	-57,88	
1548,556	-57,99	
1548,558	-57,92	
1548,560	-57,74	
1548,562	-57,70	
1548,564	-57,72	
1548,566	-57,63	
1548,568	-57,54	
1548,570	-57,64	
1548,572	-57,98	
1548,574	-57,86	
1548,576	-57,57	
1548,578	-57,62	
1548,580	-57,40	
1548,582	-57,72	
1548,584	-57,63	
1548,586	-57,41	
1548,588	-57,56	
1548,590	-57,61	
1548,592	-57,46	
1548,594	-57,39	
1548,596	-57,41	
1548,598	-57,53	
1548,600	-57,30	
1548,602	-57,33	
1548,604	-57,53	
1548,606	-57,55	
1548,608	-57,35	
1548,610	-57,22	
1548,612	-57,37	
1548,614	-57,54	
1548,616	-57,07	
1548,618	-57,29	
1548,620	-57,32	
1548,622	-57,38	
1548,624	-57,53	
1548,626	-57,47	
1548,628	-57,11	
1548,630	-57,40	
1548,632	-57,49	
1548,634	-57,02	
1548,636	-57,21	
1548,638	-57,38	
1548,640	-57,26	
1548,642	-57,14	
1548,644	-57,18	
1548,646	-57,01	
1548,648	-57,32	
1548,650	-57,36	
1548,652	-57,25	
1548,654	-57,09	
1548,656	-56,98	
1548,658	-57,02	
1548,660	-57,15	
1548,662	-57,26	
1548,664	-57,43	
1548,666	-57,45	
1548,668	-57,19	
1548,670	-57,11	
1548,672	-57,14	
1548,674	-57,20	
1548,676	-57,45	
1548,678	-57,09	
1548,680	-56,90	
1548,682	-57,29	
1548,684	-57,09	
1548,686	-56,73	
1548,688	-56,67	
1548,690	-56,91	
1548,692	-57,04	
1548,694	-57,33	
1548,696	-57,08	
1548,698	-57,05	
1548,700	-57,19	
1548,702	-56,99	
1548,704	-56,85	
1548,706	-57,03	
1548,708	-56,81	
1548,710	-56,64	
1548,712	-56,72	
1548,714	-56,86	
1548,716	-56,99	
1548,718	-56,77	
1548,720	-56,84	
1548,722	-57,03	
1548,724	-56,89	
1548,726	-56,94	
1548,728	-57,10	
1548,730	-57,12	
1548,732	-56,99	
1548,734	-56,94	
1548,736	-57,04	
1548,738	-56,89	
1548,740	-56,65	
1548,742	-56,65	
1548,744	-56,68	
1548,746	-56,77	
1548,748	-56,80	
1548,750	-56,77	
1548,752	-56,63	
1548,754	-56,89	
1548,756	-56,94	
1548,758	-56,94	
1548,760	-56,93	
1548,762	-56,77	
1548,764	-56,69	
1548,766	-56,68	
1548,768	-57,15	
1548,770	-57,07	
1548,772	-56,75	
1548,774	-57,00	
1548,776	-56,96	
1548,778	-56,78	
1548,780	-56,86	
1548,782	-56,94	
1548,784	-56,87	
1548,786	-56,86	
1548,788	-56,54	
1548,790	-56,64	
1548,792	-57,01	
1548,794	-57,17	
1548,796	-56,90	
1548,798	-57,03	
1548,800	-57,12	
1548,802	-56,99	
1548,804	-56,92	
1548,806	-56,96	
1548,808	-56,87	
1548,810	-56,82	
1548,812	-56,87	
1548,814	-56,92	
1548,816	-56,90	
1548,818	-57,13	
1548,820	-56,97	
1548,822	-56,71	
1548,824	-56,69	
1548,826	-56,79	
1548,828	-56,82	
1548,830	-56,88	
1548,832	-56,78	
1548,834	-56,80	
1548,836	-56,89	
1548,838	-57,00	
1548,840	-56,81	
1548,842	-56,80	
1548,844	-56,90	
1548,846	-56,91	
1548,848	-56,96	
1548,850	-56,98	
1548,852	-56,76	
1548,854	-56,65	
1548,856	-56,66	
1548,858	-56,72	
1548,860	-56,74	
1548,862	-56,95	
1548,864	-57,31	
1548,866	-57,34	
1548,868	-57,23	
1548,870	-57,41	
1548,872	-57,28	
1548,874	-57,08	
1548,876	-56,90	
1548,878	-56,94	
1548,880	-56,97	
1548,882	-56,82	
1548,884	-56,78	
1548,886	-56,88	
1548,888	-56,61	
1548,890	-56,71	
1548,892	-56,65	
1548,894	-57,33	
1548,896	-57,29	
1548,898	-57,03	
1548,900	-57,02	
1548,902	-57,05	
1548,904	-57,18	
1548,906	-56,96	
1548,908	-57,16	
1548,910	-57,08	
1548,912	-57,11	
1548,914	-57,46	
1548,916	-57,50	
1548,918	-57,39	
1548,920	-57,47	
1548,922	-57,44	
1548,924	-57,01	
1548,926	-56,98	
1548,928	-57,28	
1548,930	-57,30	
1548,932	-57,16	
1548,934	-57,18	
1548,936	-57,37	
1548,938	-57,53	
1548,940	-57,42	
1548,942	-57,21	
1548,944	-57,57	
1548,946	-57,32	
1548,948	-57,31	
1548,950	-57,21	
1548,952	-57,24	
1548,954	-57,44	
1548,956	-57,58	
1548,958	-57,58	
1548,960	-57,62	
1548,962	-57,26	
1548,964	-57,58	
1548,966	-57,64	
1548,968	-57,44	
1548,970	-57,69	
1548,972	-57,75	
1548,974	-57,59	
1548,976	-57,58	
1548,978	-57,65	
1548,980	-57,50	
1548,982	-57,41	
1548,984	-57,35	
1548,986	-57,64	
1548,988	-57,91	
1548,990	-58,08	
1548,992	-57,92	
1548,994	-57,84	
1548,996	-57,84	
1548,998	-57,82	
1549,000	-57,74	
1549,002	-57,69	
1549,004	-57,65	
1549,006	-57,81	
1549,008	-57,86	
1549,010	-57,75	
1549,012	-57,69	
1549,014	-57,90	
1549,016	-57,92	
1549,018	-58,02	
1549,020	-58,02	
1549,022	-58,06	
1549,024	-58,09	
1549,026	-58,08	
1549,028	-57,97	
1549,030	-57,93	
1549,032	-58,21	
1549,034	-57,64	
1549,036	-57,98	
1549,038	-58,14	
1549,040	-57,91	
1549,042	-57,87	
1549,044	-57,88	
1549,046	-57,93	
1549,048	-57,90	
1549,050	-58,07	
1549,052	-58,03	
1549,054	-58,05	
1549,056	-58,26	
1549,058	-58,32	
1549,060	-57,99	
1549,062	-57,89	
1549,064	-58,54	
1549,066	-58,57	
1549,068	-58,19	
1549,070	-58,52	
1549,072	-58,17	
1549,074	-57,85	
1549,076	-58,02	
1549,078	-58,17	
1549,080	-58,19	
1549,082	-57,96	
1549,084	-58,14	
1549,086	-58,47	
1549,088	-58,50	
1549,090	-58,52	
1549,092	-58,48	
1549,094	-57,98	
1549,096	-57,84	
1549,098	-57,99	
1549,100	-58,33	
1549,102	-58,94	
1549,104	-58,86	
1549,106	-58,51	
1549,108	-58,47	
1549,110	-58,73	
1549,112	-59,17	
1549,114	-58,83	
1549,116	-58,73	
1549,118	-58,81	
1549,120	-58,60	
1549,122	-58,36	
1549,124	-58,41	
1549,126	-58,37	
1549,128	-57,98	
1549,130	-58,21	
1549,132	-58,01	
1549,134	-58,08	
1549,136	-58,72	
1549,138	-58,75	
1549,140	-59,07	
1549,142	-59,47	
1549,144	-59,27	
1549,146	-59,27	
1549,148	-59,25	
1549,150	-58,77	
1549,152	-58,56	
1549,154	-58,77	
1549,156	-58,39	
1549,158	-58,36	
1549,160	-58,75	
1549,162	-58,87	
1549,164	-58,89	
1549,166	-58,66	
1549,168	-58,80	
1549,170	-58,88	
1549,172	-58,85	
1549,174	-58,92	
1549,176	-58,90	
1549,178	-58,72	
1549,180	-58,70	
1549,182	-58,83	
1549,184	-58,88	
1549,186	-59,06	
1549,188	-58,75	
1549,190	-58,52	
1549,192	-59,08	
1549,194	-59,32	
1549,196	-59,33	
1549,198	-59,67	
1549,200	-59,66	
1549,202	-59,51	
1549,204	-59,84	
1549,206	-59,60	
1549,208	-59,00	
1549,210	-58,87	
1549,212	-59,19	
1549,214	-59,38	
1549,216	-59,08	
1549,218	-59,34	
1549,220	-59,36	
1549,222	-59,02	
1549,224	-59,54	
1549,226	-59,54	
1549,228	-58,97	
1549,230	-58,98	
1549,232	-59,22	
1549,234	-59,62	
1549,236	-59,55	
1549,238	-59,42	
1549,240	-59,31	
1549,242	-59,33	
1549,244	-59,36	
1549,246	-59,40	
1549,248	-59,39	
1549,250	-59,02	
1549,252	-59,57	
1549,254	-59,63	
1549,256	-59,39	
1549,258	-58,76	
1549,260	-59,75	
1549,262	-59,81	
1549,264	-59,67	
1549,266	-59,67	
1549,268	-59,80	
1549,270	-59,68	
1549,272	-59,60	
1549,274	-59,58	
1549,276	-59,45	
1549,278	-59,28	
1549,280	-59,48	
1549,282	-59,62	
1549,284	-59,44	
1549,286	-59,77	
1549,288	-59,09	
1549,290	-59,36	
1549,292	-59,69	
1549,294	-59,75	
1549,296	-59,35	
1549,298	-59,99	
1549,300	-59,06	
1549,302	-59,88	
1549,304	-60,57	
1549,306	-60,04	
1549,308	-59,96	
1549,310	-60,09	
1549,312	-59,97	
1549,314	-59,58	
1549,316	-59,55	
1549,318	-59,77	
1549,320	-59,42	
1549,322	-59,35	
1549,324	-59,98	
1549,326	-59,76	
1549,328	-59,92	
1549,330	-59,77	
1549,332	-60,03	
1549,334	-59,40	
1549,336	-59,64	
1549,338	-60,49	
1549,340	-60,83	
1549,342	-60,28	
1549,344	-59,79	
1549,346	-59,66	
1549,348	-59,93	
1549,350	-59,91	
1549,352	-59,65	
1549,354	-60,60	
1549,356	-60,64	
1549,358	-59,87	
1549,360	-60,34	
1549,362	-60,28	
1549,364	-59,23	
1549,366	-59,39	
1549,368	-60,20	
1549,370	-60,46	
1549,372	-60,49	
1549,374	-60,24	
1549,376	-59,88	
1549,378	-59,78	
1549,380	-59,68	
1549,382	-59,79	
1549,384	-60,08	
1549,386	-59,78	
1549,388	-59,40	
1549,390	-60,20	
1549,392	-59,97	
1549,394	-60,10	
1549,396	-59,88	
1549,398	-60,00	
1549,400	-60,32	
1549,402	-60,34	
1549,404	-60,42	
1549,406	-60,53	
1549,408	-60,42	
1549,410	-59,83	
1549,412	-60,22	
1549,414	-59,94	
1549,416	-59,83	
1549,418	-59,89	
1549,420	-60,07	
1549,422	-60,07	
1549,424	-60,23	
1549,426	-60,34	
1549,428	-61,09	
1549,430	-61,07	
1549,432	-60,50	
1549,434	-60,25	
1549,436	-60,35	
1549,438	-60,84	
1549,440	-60,84	
1549,442	-59,72	
1549,444	-60,22	
1549,446	-60,07	
1549,448	-59,71	
1549,450	-60,35	
1549,452	-60,51	
1549,454	-60,42	
1549,456	-60,54	
1549,458	-60,59	
1549,460	-60,45	
1549,462	-60,45	
1549,464	-60,36	
1549,466	-60,22	
1549,468	-60,91	
1549,470	-60,51	
1549,472	-60,20	
1549,474	-59,67	
1549,476	-59,85	
1549,478	-60,72	
1549,480	-61,24	
1549,482	-60,64	
1549,484	-60,82	
1549,486	-60,14	
1549,488	-59,86	
1549,490	-60,03	
1549,492	-60,23	
1549,494	-60,33	
1549,496	-60,23	
1549,498	-60,48	
1549,500	-61,13	
1549,502	-60,98	
1549,504	-60,61	
1549,506	-60,17	
1549,508	-60,56	
1549,510	-60,25	
1549,512	-60,27	
1549,514	-59,84	
1549,516	-59,90	
1549,518	-60,29	
1549,520	-60,15	
1549,522	-60,29	
1549,524	-60,64	
1549,526	-60,28	
1549,528	-60,82	
1549,530	-60,18	
1549,532	-60,56	
1549,534	-60,73	
1549,536	-60,48	
1549,538	-60,42	
1549,540	-60,85	
1549,542	-60,96	
1549,544	-60,32	
1549,546	-59,94	
1549,548	-60,24	
1549,550	-60,09	
1549,552	-60,13	
1549,554	-60,58	
1549,556	-60,09	
1549,558	-60,02	
1549,560	-60,78	
1549,562	-60,88	
1549,564	-60,11	
1549,566	-60,02	
1549,568	-60,51	
1549,570	-60,37	
1549,572	-60,21	
1549,574	-60,18	
1549,576	-60,67	
1549,578	-61,09	
1549,580	-60,98	
1549,582	-60,80	
1549,584	-60,67	
1549,586	-60,32	
1549,588	-59,99	
1549,590	-59,97	
1549,592	-60,26	
1549,594	-60,48	
1549,596	-60,29	
1549,598	-61,02	
1549,600	-61,07	
1549,602	-60,58	
1549,604	-61,15	
1549,606	-60,73	
1549,608	-60,63	
1549,610	-60,67	
1549,612	-60,43	
1549,614	-60,27	
1549,616	-60,27	
1549,618	-59,92	
1549,620	-60,41	
1549,622	-60,92	
1549,624	-60,71	
1549,626	-61,12	
1549,628	-61,28	
1549,630	-60,84	
1549,632	-60,41	
1549,634	-60,29	
1549,636	-60,44	
1549,638	-60,71	
1549,640	-60,42	
1549,642	-60,82	
1549,644	-60,04	
1549,646	-60,99	
1549,648	-60,84	
1549,650	-60,29	
1549,652	-60,43	
1549,654	-60,63	
1549,656	-60,50	
1549,658	-60,63	
1549,660	-61,01	
1549,662	-60,94	
1549,664	-60,81	
1549,666	-60,74	
1549,668	-61,83	
1549,670	-60,81	
1549,672	-60,61	
1549,674	-60,63	
1549,676	-60,39	
1549,678	-60,16	
1549,680	-60,12	
1549,682	-61,03	
1549,684	-60,59	
1549,686	-61,30	
1549,688	-60,50	
1549,690	-60,80	
1549,692	-60,59	
1549,694	-60,54	
1549,696	-60,44	
1549,698	-60,28	
1549,700	-60,77	
1549,702	-61,85	
1549,704	-60,95	
1549,706	-60,12	
1549,708	-60,50	
1549,710	-60,77	
1549,712	-60,60	
1549,714	-60,43	
1549,716	-60,51	
1549,718	-60,69	
1549,720	-60,68	
1549,722	-60,47	
1549,724	-60,12	
1549,726	-60,76	
1549,728	-60,74	
1549,730	-60,58	
1549,732	-60,35	
1549,734	-60,32	
1549,736	-60,62	
1549,738	-61,00	
1549,740	-61,08	
1549,742	-61,05	
1549,744	-61,31	
1549,746	-60,69	
1549,748	-60,79	
1549,750	-60,92	
1549,752	-60,61	
1549,754	-60,59	
1549,756	-60,68	
1549,758	-60,32	
1549,760	-60,38	
1549,762	-60,82	
1549,764	-60,65	
1549,766	-60,75	
1549,768	-60,74	
1549,770	-61,10	
1549,772	-60,72	
1549,774	-60,40	
1549,776	-60,28	
1549,778	-60,22	
1549,780	-60,41	
1549,782	-60,48	
1549,784	-59,98	
1549,786	-60,52	
1549,788	-60,64	
1549,790	-60,64	
1549,792	-60,77	
1549,794	-60,63	
1549,796	-60,57	
1549,798	-60,84	
1549,800	-60,91	
1549,802	-60,89	
1549,804	-60,99	
1549,806	-60,50	
1549,808	-60,10	
1549,810	-60,31	
1549,812	-60,77	
1549,814	-60,28	
1549,816	-61,08	
1549,818	-60,91	
1549,820	-61,11	
1549,822	-61,26	
1549,824	-60,79	
1549,826	-60,56	
1549,828	-60,53	
1549,830	-60,72	
1549,832	-60,92	
1549,834	-60,26	
1549,836	-61,36	
1549,838	-60,92	
1549,840	-60,50	
1549,842	-60,77	
1549,844	-60,44	
1549,846	-61,27	
1549,848	-60,70	
1549,850	-60,32	
1549,852	-60,37	
1549,854	-60,38	
1549,856	-60,60	
1549,858	-60,69	
1549,860	-60,70	
1549,862	-61,43	
1549,864	-60,59	
1549,866	-60,91	
1549,868	-60,23	
1549,870	-60,84	
1549,872	-59,59	
1549,874	-60,19	
1549,876	-60,58	
1549,878	-60,90	
1549,880	-60,82	
1549,882	-60,34	
1549,884	-60,15	
1549,886	-60,33	
1549,888	-60,21	
1549,890	-59,90	
1549,892	-60,36	
1549,894	-60,45	
1549,896	-60,67	
1549,898	-60,09	
1549,900	-60,24	
1549,902	-60,43	
1549,904	-60,58	
1549,906	-60,35	
1549,908	-60,23	
1549,910	-60,23	
1549,912	-60,38	
1549,914	-60,23	
1549,916	-60,01	
1549,918	-60,35	
1549,920	-59,78	
1549,922	-60,48	
1549,924	-60,70	
1549,926	-60,33	
1549,928	-60,85	
1549,930	-60,44	
1549,932	-60,38	
1549,934	-60,84	
1549,936	-60,83	
1549,938	-60,30	
1549,940	-60,57	
1549,942	-61,19	
1549,944	-60,09	
1549,946	-60,08	
1549,948	-60,30	
1549,950	-60,76	
1549,952	-61,05	
1549,954	-60,21	
1549,956	-60,07	
1549,958	-60,50	
1549,960	-60,06	
1549,962	-60,62	
1549,964	-60,37	
1549,966	-59,61	
1549,968	-60,13	
1549,970	-60,62	
1549,972	-60,67	
1549,974	-60,88	
1549,976	-60,02	
1549,978	-60,58	
1549,980	-59,56	
1549,982	-60,14	
1549,984	-60,28	
1549,986	-60,01	
1549,988	-60,30	
1549,990	-60,65	
1549,992	-60,77	
1549,994	-61,07	
1549,996	-61,02	
1549,998	-60,56	
1550,000	-60,34	
1550,002	-60,66	
1550,004	-60,52	
1550,006	-59,38	
1550,008	-60,09	
1550,010	-60,03	
1550,012	-59,92	
1550,014	-60,36	
1550,016	-60,45	
1550,018	-60,27	
1550,020	-60,05	
1550,022	-60,05	
1550,024	-60,09	
1550,026	-59,65	
1550,028	-59,46	
1550,030	-60,14	
1550,032	-60,68	
1550,034	-60,85	
1550,036	-60,67	
1550,038	-60,29	
1550,040	-59,46	
1550,042	-59,70	
1550,044	-60,27	
1550,046	-60,10	
1550,048	-60,04	
1550,050	-60,21	
1550,052	-60,17	
1550,054	-60,28	
1550,056	-60,28	
1550,058	-59,92	
1550,060	-60,11	
1550,062	-59,76	
1550,064	-59,87	
1550,066	-59,93	
1550,068	-60,09	
1550,070	-60,32	
1550,072	-60,08	
1550,074	-59,99	
1550,076	-60,08	
1550,078	-60,35	
1550,080	-59,83	
1550,082	-59,67	
1550,084	-60,04	
1550,086	-60,14	
1550,088	-60,36	
1550,090	-60,67	
1550,092	-60,96	
1550,094	-60,96	
1550,096	-60,73	
1550,098	-60,35	
1550,100	-59,95	
1550,102	-59,98	
1550,104	-60,21	
1550,106	-59,89	
1550,108	-59,56	
1550,110	-59,81	
1550,112	-59,74	
1550,114	-59,11	
1550,116	-59,96	
1550,118	-59,89	
1550,120	-59,46	
1550,122	-60,41	
1550,124	-60,54	
1550,126	-60,19	
1550,128	-59,52	
1550,130	-59,67	
1550,132	-60,19	
1550,134	-59,65	
1550,136	-59,60	
1550,138	-60,00	
1550,140	-59,47	
1550,142	-59,31	
1550,144	-59,68	
1550,146	-59,72	
1550,148	-59,82	
1550,150	-59,89	
1550,152	-59,60	
1550,154	-60,25	
1550,156	-59,54	
1550,158	-60,28	
1550,160	-59,81	
1550,162	-59,73	
1550,164	-60,21	
1550,166	-59,73	
1550,168	-60,14	
1550,170	-60,13	
1550,172	-60,08	
1550,174	-59,94	
1550,176	-59,70	
1550,178	-59,66	
1550,180	-59,68	
1550,182	-60,06	
1550,184	-60,24	
1550,186	-59,76	
1550,188	-59,51	
1550,190	-59,58	
1550,192	-59,72	
1550,194	-59,52	
1550,196	-59,65	
1550,198	-59,52	
1550,200	-58,93	
1550,202	-59,58	
1550,204	-59,37	
1550,206	-59,64	
1550,208	-59,48	
1550,210	-59,88	
1550,212	-59,79	
1550,214	-59,55	
1550,216	-59,83	
1550,218	-59,65	
1550,220	-59,26	
1550,222	-59,48	
1550,224	-59,67	
1550,226	-59,49	
1550,228	-60,34	
1550,230	-59,52	
1550,232	-59,98	
1550,234	-60,10	
1550,236	-59,30	
1550,238	-59,17	
1550,240	-59,51	
1550,242	-59,66	
1550,244	-59,89	
1550,246	-59,27	
1550,248	-59,00	
1550,250	-59,58	
1550,252	-59,81	
1550,254	-59,60	
1550,256	-59,68	
1550,258	-59,43	
1550,260	-59,33	
1550,262	-59,61	
1550,264	-59,08	
1550,266	-59,39	
1550,268	-59,22	
1550,270	-59,39	
1550,272	-59,23	
1550,274	-59,20	
1550,276	-59,51	
1550,278	-59,75	
1550,280	-59,22	
1550,282	-59,32	
1550,284	-59,79	
1550,286	-59,50	
1550,288	-59,30	
1550,290	-59,54	
1550,292	-59,48	
1550,294	-59,17	
1550,296	-59,57	
1550,298	-59,13	
1550,300	-59,85	
1550,302	-58,83	
1550,304	-59,23	
1550,306	-59,62	
1550,308	-59,38	
1550,310	-59,35	
1550,312	-59,28	
1550,314	-59,39	
1550,316	-59,50	
1550,318	-59,46	
1550,320	-59,63	
1550,322	-59,51	
1550,324	-58,92	
1550,326	-59,10	
1550,328	-59,60	
1550,330	-59,25	
1550,332	-59,35	
1550,334	-59,39	
1550,336	-59,22	
1550,338	-59,18	
1550,340	-59,44	
1550,342	-58,98	
1550,344	-59,64	
1550,346	-59,51	
1550,348	-59,63	
1550,350	-59,71	
1550,352	-59,48	
1550,354	-59,18	
1550,356	-58,69	
1550,358	-58,66	
1550,360	-59,03	
1550,362	-59,20	
1550,364	-59,02	
1550,366	-58,87	
1550,368	-59,31	
1550,370	-59,03	
1550,372	-59,26	
1550,374	-59,45	
1550,376	-58,94	
1550,378	-59,30	
1550,380	-58,83	
1550,382	-59,21	
1550,384	-59,44	
1550,386	-59,17	
1550,388	-59,21	
1550,390	-59,20	
1550,392	-58,91	
1550,394	-59,09	
1550,396	-58,82	
1550,398	-59,50	
1550,400	-59,23	
1550,402	-58,88	
1550,404	-59,04	
1550,406	-59,27	
1550,408	-59,27	
1550,410	-59,11	
1550,412	-58,74	
1550,414	-58,84	
1550,416	-59,04	
1550,418	-59,10	
1550,420	-59,41	
1550,422	-59,21	
1550,424	-58,64	
1550,426	-58,71	
1550,428	-59,00	
1550,430	-58,76	
1550,432	-59,03	
1550,434	-58,97	
1550,436	-58,56	
1550,438	-59,27	
1550,440	-59,05	
1550,442	-59,40	
1550,444	-58,90	
1550,446	-58,82	
1550,448	-59,07	
1550,450	-59,28	
1550,452	-58,68	
1550,454	-58,66	
1550,456	-58,48	
1550,458	-58,32	
1550,460	-58,60	
1550,462	-58,76	
1550,464	-58,96	
1550,466	-58,47	
1550,468	-58,60	
1550,470	-58,86	
1550,472	-58,66	
1550,474	-58,99	
1550,476	-59,05	
1550,478	-58,66	
1550,480	-58,49	
1550,482	-58,52	
1550,484	-58,55	
1550,486	-58,48	
1550,488	-58,56	
1550,490	-58,69	
1550,492	-58,64	
1550,494	-58,60	
1550,496	-58,48	
1550,498	-58,88	
1550,500	-58,51	
1550,502	-58,50	
1550,504	-58,34	
1550,506	-58,85	
1550,508	-58,91	
1550,510	-58,75	
1550,512	-58,66	
1550,514	-58,83	
1550,516	-58,79	
1550,518	-58,64	
1550,520	-58,86	
1550,522	-58,76	
1550,524	-58,61	
1550,526	-58,29	
1550,528	-58,36	
1550,530	-58,88	
1550,532	-58,99	
1550,534	-58,52	
1550,536	-58,60	
1550,538	-58,94	
1550,540	-58,95	
1550,542	-58,52	
1550,544	-58,33	
1550,546	-58,55	
1550,548	-58,40	
1550,550	-58,69	
1550,552	-58,58	
1550,554	-58,33	
1550,556	-58,90	
1550,558	-58,44	
1550,560	-58,04	
1550,562	-58,29	
1550,564	-58,43	
1550,566	-58,42	
1550,568	-58,28	
1550,570	-58,04	
1550,572	-58,10	
1550,574	-58,47	
1550,576	-58,33	
1550,578	-58,56	
1550,580	-58,79	
1550,582	-58,67	
1550,584	-58,74	
1550,586	-58,42	
1550,588	-58,81	
1550,590	-58,78	
1550,592	-58,47	
1550,594	-58,60	
1550,596	-58,78	
1550,598	-58,56	
1550,600	-58,25	
1550,602	-58,25	
1550,604	-58,96	
1550,606	-58,45	
1550,608	-58,29	
1550,610	-58,22	
1550,612	-58,12	
1550,614	-58,01	
1550,616	-58,10	
1550,618	-58,28	
1550,620	-58,18	
1550,622	-58,42	
1550,624	-58,43	
1550,626	-58,73	
1550,628	-59,03	
1550,630	-58,78	
1550,632	-58,53	
1550,634	-58,41	
1550,636	-58,45	
1550,638	-58,48	
1550,640	-58,49	
1550,642	-58,62	
1550,644	-58,32	
1550,646	-58,95	
1550,648	-58,63	
1550,650	-57,99	
1550,652	-57,94	
1550,654	-57,94	
1550,656	-58,07	
1550,658	-58,12	
1550,660	-58,07	
1550,662	-58,05	
1550,664	-57,95	
1550,666	-58,24	
1550,668	-58,58	
1550,670	-58,40	
1550,672	-58,60	
1550,674	-58,75	
1550,676	-58,60	
1550,678	-58,43	
1550,680	-58,52	
1550,682	-58,37	
1550,684	-58,09	
1550,686	-58,10	
1550,688	-58,13	
1550,690	-58,15	
1550,692	-58,37	
1550,694	-58,37	
1550,696	-58,47	
1550,698	-58,08	
1550,700	-57,79	
1550,702	-58,08	
1550,704	-58,28	
1550,706	-58,34	
1550,708	-58,74	
1550,710	-58,67	
1550,712	-58,09	
1550,714	-58,14	
1550,716	-58,60	
1550,718	-58,08	
1550,720	-57,84	
1550,722	-58,51	
1550,724	-58,18	
1550,726	-58,01	
1550,728	-57,84	
1550,730	-58,16	
1550,732	-58,07	
1550,734	-57,99	
1550,736	-58,23	
1550,738	-58,26	
1550,740	-58,19	
1550,742	-58,46	
1550,744	-58,13	
1550,746	-58,12	
1550,748	-58,23	
1550,750	-58,31	
1550,752	-58,07	
1550,754	-58,50	
1550,756	-59,10	
1550,758	-58,46	
1550,760	-58,28	
1550,762	-58,44	
1550,764	-58,21	
1550,766	-58,09	
1550,768	-58,33	
1550,770	-58,15	
1550,772	-58,18	
1550,774	-58,22	
1550,776	-58,32	
1550,778	-57,90	
1550,780	-58,06	
1550,782	-58,32	
1550,784	-58,34	
1550,786	-58,51	
1550,788	-58,90	
1550,790	-58,60	
1550,792	-58,11	
1550,794	-58,29	
1550,796	-58,53	
1550,798	-57,79	
1550,800	-58,14	
1550,802	-58,37	
1550,804	-58,29	
1550,806	-58,20	
1550,808	-58,21	
1550,810	-58,24	
1550,812	-57,80	
1550,814	-58,10	
1550,816	-58,10	
1550,818	-58,17	
1550,820	-58,47	
1550,822	-58,42	
1550,824	-58,25	
1550,826	-58,31	
1550,828	-58,44	
1550,830	-58,33	
1550,832	-58,31	
1550,834	-58,36	
1550,836	-58,19	
1550,838	-58,27	
1550,840	-58,17	
1550,842	-58,19	
1550,844	-58,18	
1550,846	-58,20	
1550,848	-58,20	
1550,850	-58,11	
1550,852	-58,82	
1550,854	-58,13	
1550,856	-58,33	
1550,858	-58,16	
1550,860	-58,52	
1550,862	-58,25	
1550,864	-58,05	
1550,866	-58,37	
1550,868	-58,31	
1550,870	-57,82	
1550,872	-58,21	
1550,874	-58,29	
1550,876	-58,44	
1550,878	-58,06	
1550,880	-58,42	
1550,882	-58,51	
1550,884	-58,27	
1550,886	-58,19	
1550,888	-57,99	
1550,890	-58,01	
1550,892	-58,24	
1550,894	-57,98	
1550,896	-58,14	
1550,898	-58,38	
1550,900	-58,71	
1550,902	-58,80	
1550,904	-58,71	
1550,906	-58,67	
1550,908	-58,31	
1550,910	-58,13	
1550,912	-58,33	
1550,914	-58,41	
1550,916	-58,32	
1550,918	-58,36	
1550,920	-58,59	
1550,922	-58,81	
1550,924	-58,98	
1550,926	-59,03	
1550,928	-58,60	
1550,930	-58,45	
1550,932	-58,46	
1550,934	-58,35	
1550,936	-58,56	
1550,938	-58,48	
1550,940	-58,82	
1550,942	-58,40	
1550,944	-58,39	
1550,946	-58,70	
1550,948	-58,49	
1550,950	-58,39	
1550,952	-58,36	
1550,954	-58,32	
1550,956	-58,82	
1550,958	-58,58	
1550,960	-59,14	
1550,962	-59,01	
1550,964	-58,65	
1550,966	-58,41	
1550,968	-58,28	
1550,970	-58,22	
1550,972	-58,18	
1550,974	-58,19	
1550,976	-58,32	
1550,978	-58,43	
1550,980	-58,60	
1550,982	-58,72	
1550,984	-58,63	
1550,986	-58,76	
1550,988	-58,84	
1550,990	-58,38	
1550,992	-58,09	
1550,994	-58,48	
1550,996	-58,72	
1550,998	-58,35	
1551,000	-58,76	
1551,002	-58,67	
1551,004	-58,45	
1551,006	-59,05	
1551,008	-58,93	
1551,010	-58,54	
1551,012	-58,59	
1551,014	-58,62	
1551,016	-58,34	
1551,018	-58,86	
1551,020	-58,92	
1551,022	-58,70	
1551,024	-58,83	
1551,026	-58,45	
1551,028	-58,31	
1551,030	-58,49	
1551,032	-58,50	
1551,034	-58,37	
1551,036	-58,31	
1551,038	-58,22	
1551,040	-58,19	
1551,042	-58,64	
1551,044	-58,76	
1551,046	-58,58	
1551,048	-59,22	
1551,050	-58,74	
1551,052	-58,51	
1551,054	-58,61	
1551,056	-58,48	
1551,058	-58,60	
1551,060	-58,56	
1551,062	-58,60	
1551,064	-59,03	
1551,066	-58,65	
1551,068	-58,48	
1551,070	-58,52	
1551,072	-59,07	
1551,074	-59,33	
1551,076	-58,63	
1551,078	-58,77	
1551,080	-58,45	
1551,082	-58,65	
1551,084	-58,66	
1551,086	-58,29	
1551,088	-58,57	
1551,090	-59,16	
1551,092	-58,82	
1551,094	-59,47	
1551,096	-58,85	
1551,098	-58,68	
1551,100	-58,95	
1551,102	-58,72	
1551,104	-58,92	
1551,106	-58,92	
1551,108	-58,82	
1551,110	-58,83	
1551,112	-58,77	
1551,114	-58,73	
1551,116	-59,27	
1551,118	-59,13	
1551,120	-59,72	
1551,122	-58,60	
1551,124	-58,33	
1551,126	-58,50	
1551,128	-58,69	
1551,130	-59,03	
1551,132	-59,28	
1551,134	-59,05	
1551,136	-58,88	
1551,138	-58,56	
1551,140	-59,07	
1551,142	-58,75	
1551,144	-58,98	
1551,146	-58,99	
1551,148	-58,87	
1551,150	-59,00	
1551,152	-59,10	
1551,154	-58,89	
1551,156	-58,94	
1551,158	-59,03	
1551,160	-58,60	
1551,162	-58,71	
1551,164	-58,89	
1551,166	-58,59	
1551,168	-58,72	
1551,170	-59,04	
1551,172	-58,93	
1551,174	-58,89	
1551,176	-59,65	
1551,178	-59,49	
1551,180	-58,92	
1551,182	-59,02	
1551,184	-58,85	
1551,186	-58,78	
1551,188	-59,18	
1551,190	-58,98	
1551,192	-58,85	
1551,194	-58,88	
1551,196	-58,71	
1551,198	-58,70	
1551,200	-59,09	
1551,202	-59,10	
1551,204	-58,80	
1551,206	-58,69	
1551,208	-58,85	
1551,210	-58,79	
1551,212	-58,80	
1551,214	-58,95	
1551,216	-59,19	
1551,218	-59,25	
1551,220	-59,32	
1551,222	-59,22	
1551,224	-59,12	
1551,226	-59,41	
1551,228	-59,27	
1551,230	-58,82	
1551,232	-58,76	
1551,234	-58,92	
1551,236	-59,03	
1551,238	-59,42	
1551,240	-59,17	
1551,242	-58,96	
1551,244	-59,32	
1551,246	-59,10	
1551,248	-59,08	
1551,250	-59,03	
1551,252	-59,12	
1551,254	-59,18	
1551,256	-59,15	
1551,258	-59,32	
1551,260	-59,46	
1551,262	-59,22	
1551,264	-59,15	
1551,266	-59,22	
1551,268	-58,77	
1551,270	-58,57	
1551,272	-58,95	
1551,274	-58,69	
1551,276	-59,14	
1551,278	-58,81	
1551,280	-59,60	
1551,282	-59,82	
1551,284	-59,60	
1551,286	-59,30	
1551,288	-58,93	
1551,290	-59,03	
1551,292	-59,23	
1551,294	-59,09	
1551,296	-59,08	
1551,298	-59,22	
1551,300	-58,99	
1551,302	-58,89	
1551,304	-58,96	
1551,306	-58,94	
1551,308	-59,36	
1551,310	-59,27	
1551,312	-59,33	
1551,314	-59,61	
1551,316	-59,38	
1551,318	-59,04	
1551,320	-59,75	
1551,322	-59,80	
1551,324	-59,53	
1551,326	-59,39	
1551,328	-59,64	
1551,330	-58,93	
1551,332	-58,57	
1551,334	-59,13	
1551,336	-59,37	
1551,338	-59,11	
1551,340	-59,03	
1551,342	-59,07	
1551,344	-59,42	
1551,346	-59,50	
1551,348	-59,54	
1551,350	-59,79	
1551,352	-60,07	
1551,354	-59,35	
1551,356	-59,35	
1551,358	-59,25	
1551,360	-59,44	
1551,362	-59,83	
1551,364	-59,44	
1551,366	-58,68	
1551,368	-59,10	
1551,370	-59,39	
1551,372	-59,58	
1551,374	-59,29	
1551,376	-58,98	
1551,378	-59,15	
1551,380	-59,30	
1551,382	-59,08	
1551,384	-58,94	
1551,386	-59,31	
1551,388	-59,73	
1551,390	-59,61	
1551,392	-59,94	
1551,394	-59,32	
1551,396	-59,20	
1551,398	-59,47	
1551,400	-59,22	
1551,402	-59,14	
1551,404	-58,68	
1551,406	-59,05	
1551,408	-59,26	
1551,410	-59,46	
1551,412	-59,55	
1551,414	-59,79	
1551,416	-59,83	
1551,418	-59,71	
1551,420	-59,53	
1551,422	-59,51	
1551,424	-59,38	
1551,426	-59,22	
1551,428	-59,44	
1551,430	-59,21	
1551,432	-59,17	
1551,434	-59,35	
1551,436	-59,37	
1551,438	-59,60	
1551,440	-60,00	
1551,442	-59,79	
1551,444	-60,08	
1551,446	-60,27	
1551,448	-59,59	
1551,450	-59,48	
1551,452	-59,61	
1551,454	-59,88	
1551,456	-58,98	
1551,458	-59,38	
1551,460	-59,33	
1551,462	-58,80	
1551,464	-59,05	
1551,466	-59,08	
1551,468	-59,28	
1551,470	-59,75	
1551,472	-59,48	
1551,474	-59,13	
1551,476	-59,28	
1551,478	-59,75	
1551,480	-59,83	
1551,482	-59,50	
1551,484	-59,27	
1551,486	-58,92	
1551,488	-58,93	
1551,490	-58,93	
1551,492	-59,61	
1551,494	-59,57	
1551,496	-58,97	
1551,498	-59,15	
1551,500	-59,80	
1551,502	-59,95	
1551,504	-60,16	
1551,506	-59,60	
1551,508	-59,97	
1551,510	-59,91	
1551,512	-59,42	
1551,514	-59,46	
1551,516	-59,29	
1551,518	-59,45	
1551,520	-59,83	
1551,522	-59,72	
1551,524	-59,62	
1551,526	-59,70	
1551,528	-59,78	
1551,530	-59,73	
1551,532	-59,24	
1551,534	-59,47	
1551,536	-59,61	
1551,538	-59,10	
1551,540	-59,24	
1551,542	-59,49	
1551,544	-59,35	
1551,546	-59,68	
1551,548	-59,23	
1551,550	-59,24	
1551,552	-59,24	
1551,554	-59,28	
1551,556	-59,29	
1551,558	-59,80	
1551,560	-59,67	
1551,562	-59,62	
1551,564	-59,54	
1551,566	-59,65	
1551,568	-59,66	
1551,570	-59,45	
1551,572	-59,25	
1551,574	-59,37	
1551,576	-59,49	
1551,578	-59,38	
1551,580	-59,37	
1551,582	-59,49	
1551,584	-59,89	
1551,586	-59,43	
1551,588	-59,23	
1551,590	-59,38	
1551,592	-59,19	
1551,594	-59,40	
1551,596	-59,12	
1551,598	-59,46	
1551,600	-59,64	
1551,602	-59,30	
1551,604	-59,41	
1551,606	-59,54	
1551,608	-59,66	
1551,610	-60,14	
1551,612	-59,86	
1551,614	-59,16	
1551,616	-59,20	
1551,618	-59,34	
1551,620	-59,18	
1551,622	-59,21	
1551,624	-59,46	
1551,626	-59,65	
1551,628	-59,20	
1551,630	-59,16	
1551,632	-59,73	
1551,634	-59,62	
1551,636	-59,45	
1551,638	-59,88	
1551,640	-59,44	
1551,642	-59,37	
1551,644	-59,48	
1551,646	-59,27	
1551,648	-59,03	
1551,650	-59,62	
1551,652	-59,37	
1551,654	-59,29	
1551,656	-59,40	
1551,658	-59,39	
1551,660	-59,19	
1551,662	-59,19	
1551,664	-59,36	
1551,666	-59,26	
1551,668	-59,35	
1551,670	-59,54	
1551,672	-59,43	
1551,674	-59,82	
1551,676	-59,89	
1551,678	-59,75	
1551,680	-59,76	
1551,682	-59,42	
1551,684	-59,74	
1551,686	-59,73	
1551,688	-59,35	
1551,690	-59,64	
1551,692	-59,38	
1551,694	-59,62	
1551,696	-60,20	
1551,698	-59,79	
1551,700	-59,43	
1551,702	-59,39	
1551,704	-59,35	
1551,706	-58,86	
1551,708	-60,19	
1551,710	-58,75	
1551,712	-59,28	
1551,714	-59,53	
1551,716	-59,35	
1551,718	-59,33	
1551,720	-59,54	
1551,722	-59,30	
1551,724	-58,87	
1551,726	-59,19	
1551,728	-59,81	
1551,730	-59,56	
1551,732	-60,03	
1551,734	-59,46	
1551,736	-59,26	
1551,738	-59,09	
1551,740	-59,02	
1551,742	-59,17	
1551,744	-58,99	
1551,746	-59,08	
1551,748	-59,28	
1551,750	-59,34	
1551,752	-59,33	
1551,754	-59,69	
1551,756	-60,08	
1551,758	-59,55	
1551,760	-59,51	
1551,762	-59,71	
1551,764	-59,31	
1551,766	-59,17	
1551,768	-58,84	
1551,770	-59,54	
1551,772	-59,75	
1551,774	-59,54	
1551,776	-59,61	
1551,778	-59,59	
1551,780	-59,37	
1551,782	-59,34	
1551,784	-59,21	
1551,786	-59,41	
1551,788	-58,58	
1551,790	-59,50	
1551,792	-59,32	
1551,794	-59,12	
1551,796	-58,93	
1551,798	-59,12	
1551,800	-59,44	
1551,802	-59,73	
1551,804	-59,38	
1551,806	-58,92	
1551,808	-59,06	
1551,810	-59,13	
1551,812	-59,36	
1551,814	-59,55	
1551,816	-59,04	
1551,818	-59,34	
1551,820	-59,05	
1551,822	-59,01	
1551,824	-59,09	
1551,826	-59,28	
1551,828	-59,53	
1551,830	-59,58	
1551,832	-59,37	
1551,834	-59,18	
1551,836	-59,08	
1551,838	-58,95	
1551,840	-58,73	
1551,842	-59,05	
1551,844	-58,83	
1551,846	-58,91	
1551,848	-59,08	
1551,850	-58,96	
1551,852	-58,79	
1551,854	-58,77	
1551,856	-59,45	
1551,858	-59,42	
1551,860	-59,12	
1551,862	-59,13	
1551,864	-58,96	
1551,866	-59,04	
1551,868	-59,16	
1551,870	-59,22	
1551,872	-59,12	
1551,874	-58,53	
1551,876	-59,39	
1551,878	-59,72	
1551,880	-59,44	
1551,882	-59,38	
1551,884	-59,39	
1551,886	-59,35	
1551,888	-59,24	
1551,890	-59,11	
1551,892	-58,99	
1551,894	-58,91	
1551,896	-59,11	
1551,898	-58,69	
1551,900	-59,47	
1551,902	-59,11	
1551,904	-59,27	
1551,906	-59,46	
1551,908	-59,06	
1551,910	-58,74	
1551,912	-59,13	
1551,914	-59,15	
1551,916	-58,45	
1551,918	-59,52	
1551,920	-59,42	
1551,922	-59,08	
1551,924	-58,58	
1551,926	-58,39	
1551,928	-58,87	
1551,930	-58,82	
1551,932	-58,70	
1551,934	-58,74	
1551,936	-58,82	
1551,938	-58,77	
1551,940	-58,91	
1551,942	-59,09	
1551,944	-59,20	
1551,946	-59,08	
1551,948	-58,77	
1551,950	-58,80	
1551,952	-59,24	
1551,954	-59,14	
1551,956	-58,85	
1551,958	-59,08	
1551,960	-59,08	
1551,962	-59,08	
1551,964	-59,35	
1551,966	-59,46	
1551,968	-59,22	
1551,970	-59,17	
1551,972	-59,29	
1551,974	-59,01	
1551,976	-58,65	
1551,978	-58,53	
1551,980	-58,43	
1551,982	-58,78	
1551,984	-59,13	
1551,986	-59,03	
1551,988	-58,79	
1551,990	-58,75	
1551,992	-58,81	
1551,994	-59,14	
1551,996	-58,64	
1551,998	-59,36	
1552,000	-59,35	
1552,002	-58,95	
1552,004	-58,71	
1552,006	-58,55	
1552,008	-58,44	
1552,010	-58,69	
1552,012	-58,81	
1552,014	-58,64	
1552,016	-58,58	
1552,018	-58,74	
1552,020	-59,00	
1552,022	-59,16	
1552,024	-59,05	
1552,026	-58,90	
1552,028	-58,82	
1552,030	-58,84	
1552,032	-58,82	
1552,034	-58,75	
1552,036	-59,16	
1552,038	-58,23	
1552,040	-58,39	
1552,042	-58,82	
1552,044	-58,83	
1552,046	-58,91	
1552,048	-59,03	
1552,050	-59,02	
1552,052	-58,80	
1552,054	-58,51	
1552,056	-58,31	
1552,058	-58,36	
1552,060	-58,34	
1552,062	-58,77	
1552,064	-58,46	
1552,066	-58,73	
1552,068	-58,46	
1552,070	-58,30	
1552,072	-58,48	
1552,074	-58,62	
1552,076	-58,64	
1552,078	-58,64	
1552,080	-58,78	
1552,082	-58,86	
1552,084	-58,66	
1552,086	-58,90	
1552,088	-58,58	
1552,090	-58,77	
1552,092	-58,71	
1552,094	-58,83	
1552,096	-58,90	
1552,098	-58,89	
1552,100	-58,82	
1552,102	-58,41	
1552,104	-58,32	
1552,106	-58,95	
1552,108	-58,64	
1552,110	-58,65	
1552,112	-58,91	
1552,114	-58,38	
1552,116	-57,82	
1552,118	-57,88	
1552,120	-58,37	
1552,122	-58,57	
1552,124	-58,74	
1552,126	-59,12	
1552,128	-58,73	
1552,130	-58,40	
1552,132	-58,30	
1552,134	-58,41	
1552,136	-58,23	
1552,138	-58,51	
1552,140	-58,74	
1552,142	-58,61	
1552,144	-58,78	
1552,146	-58,78	
1552,148	-58,49	
1552,150	-58,62	
1552,152	-58,76	
1552,154	-58,25	
1552,156	-58,58	
1552,158	-57,93	
1552,160	-58,34	
1552,162	-58,13	
1552,164	-58,33	
1552,166	-58,36	
1552,168	-58,40	
1552,170	-58,62	
1552,172	-58,58	
1552,174	-58,15	
1552,176	-57,99	
1552,178	-58,50	
1552,180	-58,40	
1552,182	-58,25	
1552,184	-58,37	
1552,186	-58,11	
1552,188	-59,14	
1552,190	-58,32	
1552,192	-58,19	
1552,194	-58,43	
1552,196	-58,45	
1552,198	-58,36	
1552,200	-58,45	
1552,202	-58,43	
1552,204	-58,10	
1552,206	-58,70	
1552,208	-58,44	
1552,210	-58,68	
1552,212	-58,00	
1552,214	-58,30	
1552,216	-58,52	
1552,218	-58,06	
1552,220	-58,06	
1552,222	-58,67	
1552,224	-58,84	
1552,226	-58,59	
1552,228	-58,47	
1552,230	-58,44	
1552,232	-58,44	
1552,234	-58,58	
1552,236	-58,35	
1552,238	-58,46	
1552,240	-58,21	
1552,242	-58,16	
1552,244	-58,57	
1552,246	-58,65	
1552,248	-58,82	
1552,250	-58,57	
1552,252	-58,07	
1552,254	-57,95	
1552,256	-58,18	
1552,258	-58,27	
1552,260	-58,34	
1552,262	-58,07	
1552,264	-57,91	
1552,266	-58,31	
1552,268	-58,62	
1552,270	-58,52	
1552,272	-58,71	
1552,274	-58,41	
1552,276	-58,31	
1552,278	-58,57	
1552,280	-58,35	
1552,282	-57,97	
1552,284	-58,01	
1552,286	-58,16	
1552,288	-57,85	
1552,290	-57,67	
1552,292	-57,56	
1552,294	-58,11	
1552,296	-58,39	
1552,298	-58,54	
1552,300	-59,04	
1552,302	-58,58	
1552,304	-58,40	
1552,306	-58,09	
1552,308	-57,85	
1552,310	-58,00	
1552,312	-58,24	
1552,314	-58,20	
1552,316	-58,13	
1552,318	-58,27	
1552,320	-58,18	
1552,322	-57,91	
1552,324	-57,96	
1552,326	-57,85	
1552,328	-58,00	
1552,330	-58,43	
1552,332	-58,06	
1552,334	-58,40	
1552,336	-58,02	
1552,338	-58,76	
1552,340	-58,50	
1552,342	-58,03	
1552,344	-58,37	
1552,346	-58,28	
1552,348	-58,37	
1552,350	-58,03	
1552,352	-57,87	
1552,354	-57,89	
1552,356	-57,76	
1552,358	-58,10	
1552,360	-58,57	
1552,362	-58,27	
1552,364	-58,13	
1552,366	-58,53	
1552,368	-58,44	
1552,370	-58,02	
1552,372	-58,34	
1552,374	-57,80	
1552,376	-58,62	
1552,378	-58,06	
1552,380	-58,56	
1552,382	-58,33	
1552,384	-57,99	
1552,386	-58,39	
1552,388	-58,23	
1552,390	-58,06	
1552,392	-58,30	
1552,394	-58,33	
1552,396	-58,30	
1552,398	-58,20	
1552,400	-58,09	
1552,402	-57,88	
1552,404	-57,96	
1552,406	-58,32	
1552,408	-58,05	
1552,410	-58,16	
1552,412	-58,21	
1552,414	-57,86	
1552,416	-58,04	
1552,418	-58,13	
1552,420	-58,43	
1552,422	-58,25	
1552,424	-58,27	
1552,426	-58,48	
1552,428	-58,33	
1552,430	-58,22	
1552,432	-58,41	
1552,434	-58,51	
1552,436	-58,36	
1552,438	-58,39	
1552,440	-58,55	
1552,442	-58,26	
1552,444	-58,02	
1552,446	-57,91	
1552,448	-58,08	
1552,450	-58,32	
1552,452	-58,30	
1552,454	-57,80	
1552,456	-57,72	
1552,458	-58,16	
1552,460	-58,25	
1552,462	-58,03	
1552,464	-58,17	
1552,466	-58,21	
1552,468	-58,30	
1552,470	-58,50	
1552,472	-58,30	
1552,474	-58,68	
1552,476	-58,50	
1552,478	-58,32	
1552,480	-58,72	
1552,482	-58,11	
1552,484	-58,11	
1552,486	-58,09	
1552,488	-57,76	
1552,490	-57,90	
1552,492	-57,95	
1552,494	-57,90	
1552,496	-58,00	
1552,498	-58,18	
1552,500	-58,17	
1552,502	-58,19	
1552,504	-58,21	
1552,506	-58,48	
1552,508	-58,16	
1552,510	-57,99	
1552,512	-58,15	
1552,514	-57,72	
1552,516	-57,87	
1552,518	-58,53	
1552,520	-58,95	
1552,522	-58,44	
1552,524	-58,10	
1552,526	-58,29	
1552,528	-58,49	
1552,530	-58,53	
1552,532	-58,06	
1552,534	-58,20	
1552,536	-58,46	
1552,538	-58,44	
1552,540	-58,51	
1552,542	-57,95	
1552,544	-58,29	
1552,546	-58,14	
1552,548	-58,14	
1552,550	-58,43	
1552,552	-58,51	
1552,554	-58,41	
1552,556	-58,45	
1552,558	-58,40	
1552,560	-58,29	
1552,562	-58,22	
1552,564	-57,99	
1552,566	-58,34	
1552,568	-58,03	
1552,570	-58,34	
1552,572	-58,68	
1552,574	-58,47	
1552,576	-58,39	
1552,578	-58,41	
1552,580	-58,42	
1552,582	-58,13	
1552,584	-58,17	
1552,586	-58,26	
1552,588	-58,19	
1552,590	-58,66	
1552,592	-58,72	
1552,594	-58,30	
1552,596	-58,34	
1552,598	-58,65	
1552,600	-58,41	
1552,602	-58,64	
1552,604	-58,27	
1552,606	-58,30	
1552,608	-58,15	
1552,610	-58,17	
1552,612	-58,15	
1552,614	-58,15	
1552,616	-58,42	
1552,618	-58,26	
1552,620	-58,24	
1552,622	-58,67	
1552,624	-58,66	
1552,626	-58,44	
1552,628	-58,34	
1552,630	-58,27	
1552,632	-58,62	
1552,634	-58,55	
1552,636	-58,56	
1552,638	-58,99	
1552,640	-58,69	
1552,642	-58,20	
1552,644	-58,15	
1552,646	-58,36	
1552,648	-58,56	
1552,650	-58,45	
1552,652	-58,34	
1552,654	-58,45	
1552,656	-58,55	
1552,658	-58,63	
1552,660	-58,65	
1552,662	-58,67	
1552,664	-59,13	
1552,666	-58,33	
1552,668	-58,30	
1552,670	-58,53	
1552,672	-58,59	
1552,674	-58,74	
1552,676	-58,53	
1552,678	-58,37	
1552,680	-58,53	
1552,682	-58,53	
1552,684	-58,27	
1552,686	-58,37	
1552,688	-58,41	
1552,690	-58,43	
1552,692	-58,80	
1552,694	-58,55	
1552,696	-58,36	
1552,698	-58,54	
1552,700	-58,91	
1552,702	-58,94	
1552,704	-58,72	
1552,706	-58,67	
1552,708	-58,62	
1552,710	-58,60	
1552,712	-58,87	
1552,714	-58,90	
1552,716	-58,33	
1552,718	-58,72	
1552,720	-58,63	
1552,722	-58,35	
1552,724	-58,57	
1552,726	-58,37	
1552,728	-58,27	
1552,730	-58,80	
1552,732	-58,78	
1552,734	-58,44	
1552,736	-58,27	
1552,738	-58,81	
1552,740	-58,21	
1552,742	-58,95	
1552,744	-58,97	
1552,746	-58,69	
1552,748	-58,62	
1552,750	-58,48	
1552,752	-58,54	
1552,754	-58,62	
1552,756	-58,57	
1552,758	-58,81	
1552,760	-58,74	
1552,762	-58,94	
1552,764	-58,25	
1552,766	-58,16	
1552,768	-58,41	
1552,770	-58,40	
1552,772	-58,72	
1552,774	-58,94	
1552,776	-58,82	
1552,778	-58,95	
1552,780	-59,05	
1552,782	-58,73	
1552,784	-58,81	
1552,786	-59,33	
1552,788	-58,73	
1552,790	-58,96	
1552,792	-58,49	
1552,794	-58,72	
1552,796	-58,30	
1552,798	-58,19	
1552,800	-58,58	
1552,802	-58,68	
1552,804	-58,67	
1552,806	-59,19	
1552,808	-59,10	
1552,810	-59,34	
1552,812	-59,54	
1552,814	-58,48	
1552,816	-59,01	
1552,818	-58,65	
1552,820	-58,80	
1552,822	-58,95	
1552,824	-58,62	
1552,826	-58,33	
1552,828	-58,39	
1552,830	-58,66	
1552,832	-58,82	
1552,834	-58,94	
1552,836	-58,75	
1552,838	-59,09	
1552,840	-59,21	
1552,842	-58,78	
1552,844	-59,03	
1552,846	-58,90	
1552,848	-58,72	
1552,850	-58,70	
1552,852	-58,62	
1552,854	-58,81	
1552,856	-58,53	
1552,858	-58,78	
1552,860	-58,88	
1552,862	-59,45	
1552,864	-59,20	
1552,866	-58,99	
1552,868	-59,01	
1552,870	-58,75	
1552,872	-58,41	
1552,874	-58,48	
1552,876	-58,71	
1552,878	-59,09	
1552,880	-59,08	
1552,882	-58,85	
1552,884	-59,00	
1552,886	-58,95	
1552,888	-58,74	
1552,890	-58,63	
1552,892	-58,85	
1552,894	-59,17	
1552,896	-58,81	
1552,898	-58,70	
1552,900	-59,18	
1552,902	-59,44	
1552,904	-59,11	
1552,906	-58,82	
1552,908	-58,86	
1552,910	-58,90	
1552,912	-58,92	
1552,914	-59,03	
1552,916	-58,53	
1552,918	-59,11	
1552,920	-58,73	
1552,922	-58,96	
1552,924	-59,00	
1552,926	-59,18	
1552,928	-59,25	
1552,930	-59,08	
1552,932	-58,87	
1552,934	-58,69	
1552,936	-58,92	
1552,938	-59,36	
1552,940	-59,19	
1552,942	-59,26	
1552,944	-59,24	
1552,946	-59,25	
1552,948	-59,20	
1552,950	-59,01	
1552,952	-58,99	
1552,954	-59,96	
1552,956	-59,10	
1552,958	-59,10	
1552,960	-58,98	
1552,962	-59,22	
1552,964	-59,02	
1552,966	-59,17	
1552,968	-59,71	
1552,970	-59,18	
1552,972	-59,15	
1552,974	-58,65	
1552,976	-58,98	
1552,978	-58,95	
1552,980	-59,00	
1552,982	-58,88	
1552,984	-58,84	
1552,986	-59,20	
1552,988	-59,35	
1552,990	-59,05	
1552,992	-59,48	
1552,994	-59,26	
1552,996	-59,10	
1552,998	-59,14	
1553,000	-59,12	
1553,002	-59,08	
1553,004	-59,12	
1553,006	-59,06	
1553,008	-58,98	
1553,010	-59,45	
1553,012	-59,04	
1553,014	-59,41	
1553,016	-59,31	
1553,018	-58,81	
1553,020	-58,65	
1553,022	-58,77	
1553,024	-59,52	
1553,026	-59,51	
1553,028	-59,58	
1553,030	-59,13	
1553,032	-58,93	
1553,034	-58,96	
1553,036	-59,09	
1553,038	-59,63	
1553,040	-59,13	
1553,042	-59,27	
1553,044	-59,01	
1553,046	-59,07	
1553,048	-59,17	
1553,050	-59,13	
1553,052	-59,09	
1553,054	-59,20	
1553,056	-59,38	
1553,058	-59,71	
1553,060	-59,26	
1553,062	-59,37	
1553,064	-59,37	
1553,066	-59,35	
1553,068	-59,06	
1553,070	-58,78	
1553,072	-58,82	
1553,074	-58,35	
1553,076	-59,14	
1553,078	-59,54	
1553,080	-59,17	
1553,082	-59,41	
1553,084	-59,58	
1553,086	-59,49	
1553,088	-59,48	
1553,090	-59,38	
1553,092	-59,61	
1553,094	-59,57	
1553,096	-59,83	
1553,098	-59,77	
1553,100	-59,56	
1553,102	-59,19	
1553,104	-58,98	
1553,106	-59,56	
1553,108	-59,01	
1553,110	-59,45	
1553,112	-58,89	
1553,114	-58,76	
1553,116	-59,44	
1553,118	-59,67	
1553,120	-59,26	
1553,122	-59,63	
1553,124	-59,67	
1553,126	-59,97	
1553,128	-59,43	
1553,130	-59,34	
1553,132	-59,66	
1553,134	-59,58	
1553,136	-59,43	
1553,138	-59,89	
1553,140	-59,56	
1553,142	-59,38	
1553,144	-59,23	
1553,146	-59,33	
1553,148	-59,30	
1553,150	-59,54	
1553,152	-59,11	
1553,154	-58,60	
1553,156	-59,08	
1553,158	-59,52	
1553,160	-58,96	
1553,162	-58,78	
1553,164	-59,96	
1553,166	-59,81	
1553,168	-59,50	
1553,170	-59,48	
1553,172	-59,45	
1553,174	-59,26	
1553,176	-59,29	
1553,178	-59,38	
1553,180	-59,52	
1553,182	-59,95	
1553,184	-60,43	
1553,186	-59,53	
1553,188	-59,40	
1553,190	-59,26	
1553,192	-59,18	
1553,194	-59,22	
1553,196	-59,52	
1553,198	-60,02	
1553,200	-59,77	
1553,202	-59,25	
1553,204	-59,56	
1553,206	-59,52	
1553,208	-59,31	
1553,210	-59,39	
1553,212	-59,19	
1553,214	-59,13	
1553,216	-59,05	
1553,218	-58,84	
1553,220	-58,96	
1553,222	-59,24	
1553,224	-59,24	
1553,226	-60,01	
1553,228	-59,91	
1553,230	-59,64	
1553,232	-59,23	
1553,234	-58,91	
1553,236	-58,79	
1553,238	-58,97	
1553,240	-59,08	
1553,242	-59,24	
1553,244	-59,72	
1553,246	-59,93	
1553,248	-60,63	
1553,250	-59,38	
1553,252	-59,28	
1553,254	-59,48	
1553,256	-59,58	
1553,258	-59,02	
1553,260	-59,05	
1553,262	-59,48	
1553,264	-59,69	
1553,266	-59,93	
1553,268	-59,54	
1553,270	-59,24	
1553,272	-59,68	
1553,274	-59,63	
1553,276	-59,91	
1553,278	-60,07	
1553,280	-59,89	
1553,282	-59,73	
1553,284	-59,49	
1553,286	-58,96	
1553,288	-58,80	
1553,290	-58,88	
1553,292	-59,27	
1553,294	-59,20	
1553,296	-59,31	
1553,298	-59,80	
1553,300	-59,86	
1553,302	-59,51	
1553,304	-59,57	
1553,306	-59,76	
1553,308	-58,87	
1553,310	-58,68	
1553,312	-59,39	
1553,314	-59,84	
1553,316	-59,65	
1553,318	-59,56	
1553,320	-59,50	
1553,322	-59,32	
1553,324	-59,53	
1553,326	-59,92	
1553,328	-60,04	
1553,330	-59,46	
1553,332	-58,97	
1553,334	-59,27	
1553,336	-59,81	
1553,338	-59,84	
1553,340	-59,39	
1553,342	-59,23	
1553,344	-59,55	
1553,346	-60,10	
1553,348	-59,44	
1553,350	-59,51	
1553,352	-59,22	
1553,354	-59,35	
1553,356	-59,18	
1553,358	-59,20	
1553,360	-59,48	
1553,362	-59,39	
1553,364	-59,00	
1553,366	-59,39	
1553,368	-59,81	
1553,370	-59,96	
1553,372	-59,54	
1553,374	-59,75	
1553,376	-59,85	
1553,378	-59,64	
1553,380	-59,64	
1553,382	-59,70	
1553,384	-59,58	
1553,386	-59,44	
1553,388	-59,10	
1553,390	-59,41	
1553,392	-59,06	
1553,394	-59,52	
1553,396	-59,53	
1553,398	-59,24	
1553,400	-59,31	
1553,402	-59,62	
1553,404	-59,63	
1553,406	-59,29	
1553,408	-58,90	
1553,410	-59,51	
1553,412	-59,13	
1553,414	-59,28	
1553,416	-59,33	
1553,418	-59,07	
1553,420	-59,37	
1553,422	-59,60	
1553,424	-59,25	
1553,426	-59,00	
1553,428	-59,25	
1553,430	-59,87	
1553,432	-59,98	
1553,434	-59,25	
1553,436	-59,42	
1553,438	-59,46	
1553,440	-59,69	
1553,442	-59,54	
1553,444	-59,24	
1553,446	-58,89	
1553,448	-59,20	
1553,450	-59,41	
1553,452	-59,34	
1553,454	-59,58	
1553,456	-59,57	
1553,458	-59,45	
1553,460	-59,43	
1553,462	-59,38	
1553,464	-59,56	
1553,466	-59,24	
1553,468	-59,51	
1553,470	-59,24	
1553,472	-59,72	
1553,474	-59,40	
1553,476	-59,07	
1553,478	-59,26	
1553,480	-59,20	
1553,482	-59,21	
1553,484	-59,63	
1553,486	-59,64	
1553,488	-59,29	
1553,490	-59,33	
1553,492	-59,34	
1553,494	-59,38	
1553,496	-59,15	
1553,498	-59,41	
1553,500	-59,22	
1553,502	-58,88	
1553,504	-59,06	
1553,506	-59,13	
1553,508	-59,44	
1553,510	-59,38	
1553,512	-59,92	
1553,514	-59,52	
1553,516	-59,18	
1553,518	-59,39	
1553,520	-59,57	
1553,522	-59,38	
1553,524	-59,20	
1553,526	-59,32	
1553,528	-59,34	
1553,530	-58,97	
1553,532	-58,99	
1553,534	-59,08	
1553,536	-59,18	
1553,538	-59,26	
1553,540	-59,03	
1553,542	-59,65	
1553,544	-59,43	
1553,546	-59,64	
1553,548	-59,92	
1553,550	-59,34	
1553,552	-59,08	
1553,554	-59,43	
1553,556	-59,37	
1553,558	-59,02	
1553,560	-59,15	
1553,562	-59,33	
1553,564	-59,21	
1553,566	-59,59	
1553,568	-59,11	
1553,570	-59,84	
1553,572	-59,62	
1553,574	-59,35	
1553,576	-59,41	
1553,578	-59,16	
1553,580	-59,44	
1553,582	-59,05	
1553,584	-58,90	
1553,586	-59,23	
1553,588	-59,23	
1553,590	-59,04	
1553,592	-59,17	
1553,594	-58,95	
1553,596	-58,82	
1553,598	-59,36	
1553,600	-58,96	
1553,602	-59,28	
1553,604	-59,30	
1553,606	-59,33	
1553,608	-59,07	
1553,610	-59,22	
1553,612	-59,26	
1553,614	-59,41	
1553,616	-59,27	
1553,618	-59,18	
1553,620	-59,20	
1553,622	-59,28	
1553,624	-59,62	
1553,626	-59,61	
1553,628	-59,16	
1553,630	-59,37	
1553,632	-58,93	
1553,634	-59,61	
1553,636	-59,28	
1553,638	-59,22	
1553,640	-59,53	
1553,642	-59,30	
1553,644	-59,03	
1553,646	-59,27	
1553,648	-59,28	
1553,650	-59,42	
1553,652	-59,61	
1553,654	-59,42	
1553,656	-59,25	
1553,658	-59,15	
1553,660	-59,06	
1553,662	-58,99	
1553,664	-58,65	
1553,666	-58,97	
1553,668	-59,23	
1553,670	-59,03	
1553,672	-59,39	
1553,674	-59,00	
1553,676	-58,92	
1553,678	-58,91	
1553,680	-58,86	
1553,682	-59,09	
1553,684	-59,17	
1553,686	-58,90	
1553,688	-58,90	
1553,690	-58,99	
1553,692	-58,77	
1553,694	-58,81	
1553,696	-59,36	
1553,698	-59,56	
1553,700	-59,51	
1553,702	-59,45	
1553,704	-59,09	
1553,706	-59,59	
1553,708	-59,37	
1553,710	-59,16	
1553,712	-59,22	
1553,714	-59,10	
1553,716	-59,59	
1553,718	-59,75	
1553,720	-59,17	
1553,722	-59,06	
1553,724	-58,79	
1553,726	-58,99	
1553,728	-59,12	
1553,730	-59,11	
1553,732	-59,11	
1553,734	-58,96	
1553,736	-58,86	
1553,738	-58,84	
1553,740	-58,98	
1553,742	-58,80	
1553,744	-58,74	
1553,746	-59,00	
1553,748	-59,33	
1553,750	-58,93	
1553,752	-59,85	
1553,754	-59,03	
1553,756	-59,06	
1553,758	-59,21	
1553,760	-58,67	
1553,762	-58,78	
1553,764	-59,06	
1553,766	-58,84	
1553,768	-58,94	
1553,770	-59,36	
1553,772	-59,07	
1553,774	-58,60	
1553,776	-58,91	
1553,778	-58,88	
1553,780	-59,47	
1553,782	-58,75	
1553,784	-58,54	
1553,786	-58,54	
1553,788	-58,40	
1553,790	-58,60	
1553,792	-58,75	
1553,794	-59,31	
1553,796	-59,47	
1553,798	-59,06	
1553,800	-59,07	
1553,802	-59,43	
1553,804	-59,34	
1553,806	-59,16	
1553,808	-58,69	
1553,810	-58,57	
1553,812	-58,92	
1553,814	-58,63	
1553,816	-58,62	
1553,818	-58,88	
1553,820	-59,23	
1553,822	-59,05	
1553,824	-58,99	
1553,826	-58,91	
1553,828	-58,75	
1553,830	-58,77	
1553,832	-58,97	
1553,834	-58,94	
1553,836	-58,55	
1553,838	-59,08	
1553,840	-58,47	
1553,842	-58,54	
1553,844	-58,65	
1553,846	-58,57	
1553,848	-58,88	
1553,850	-59,02	
1553,852	-59,31	
1553,854	-58,99	
1553,856	-58,91	
1553,858	-58,72	
1553,860	-58,35	
1553,862	-58,37	
1553,864	-58,85	
1553,866	-59,19	
1553,868	-58,89	
1553,870	-58,72	
1553,872	-58,78	
1553,874	-58,88	
1553,876	-59,24	
1553,878	-59,03	
1553,880	-58,55	
1553,882	-58,71	
1553,884	-58,71	
1553,886	-58,28	
1553,888	-58,46	
1553,890	-59,11	
1553,892	-59,13	
1553,894	-59,00	
1553,896	-59,08	
1553,898	-58,70	
1553,900	-58,52	
1553,902	-58,62	
1553,904	-58,55	
1553,906	-58,91	
1553,908	-58,29	
1553,910	-58,21	
1553,912	-58,42	
1553,914	-58,41	
1553,916	-58,83	
1553,918	-58,67	
1553,920	-58,50	
1553,922	-58,61	
1553,924	-58,69	
1553,926	-58,70	
1553,928	-58,63	
1553,930	-58,02	
1553,932	-58,58	
1553,934	-58,97	
1553,936	-58,85	
1553,938	-59,26	
1553,940	-58,82	
1553,942	-58,47	
1553,944	-58,53	
1553,946	-58,73	
1553,948	-59,10	
1553,950	-59,13	
1553,952	-58,48	
1553,954	-58,17	
1553,956	-58,42	
1553,958	-58,64	
1553,960	-59,28	
1553,962	-58,83	
1553,964	-58,38	
1553,966	-59,25	
1553,968	-58,58	
1553,970	-58,37	
1553,972	-58,61	
1553,974	-58,50	
1553,976	-58,42	
1553,978	-58,76	
1553,980	-59,09	
1553,982	-58,85	
1553,984	-58,95	
1553,986	-58,78	
1553,988	-58,50	
1553,990	-58,39	
1553,992	-58,65	
1553,994	-58,76	
1553,996	-58,51	
1553,998	-58,53	
1554,000	-58,58	
1554,002	-58,38	
1554,004	-58,24	
1554,006	-58,52	
1554,008	-58,65	
1554,010	-58,27	
1554,012	-58,05	
1554,014	-58,66	
1554,016	-58,73	
1554,018	-59,05	
1554,020	-58,32	
1554,022	-58,19	
1554,024	-58,50	
1554,026	-58,61	
1554,028	-58,57	
1554,030	-58,69	
1554,032	-58,46	
1554,034	-59,10	
1554,036	-58,61	
1554,038	-58,38	
1554,040	-58,52	
1554,042	-58,51	
1554,044	-58,27	
1554,046	-57,95	
1554,048	-58,14	
1554,050	-58,69	
1554,052	-58,31	
1554,054	-58,29	
1554,056	-59,06	
1554,058	-58,95	
1554,060	-58,55	
1554,062	-58,54	
1554,064	-58,71	
1554,066	-58,49	
1554,068	-58,59	
1554,070	-58,69	
1554,072	-58,51	
1554,074	-58,61	
1554,076	-58,71	
1554,078	-58,48	
1554,080	-58,24	
1554,082	-58,42	
1554,084	-58,18	
1554,086	-58,25	
1554,088	-58,46	
1554,090	-58,64	
1554,092	-58,77	
1554,094	-58,91	
1554,096	-58,79	
1554,098	-58,17	
1554,100	-58,21	
1554,102	-58,92	
1554,104	-58,52	
1554,106	-58,66	
1554,108	-59,32	
1554,110	-58,72	
1554,112	-58,32	
1554,114	-58,18	
1554,116	-58,10	
1554,118	-58,14	
1554,120	-58,63	
1554,122	-58,56	
1554,124	-59,05	
1554,126	-58,73	
1554,128	-58,93	
1554,130	-58,74	
1554,132	-58,58	
1554,134	-58,47	
1554,136	-58,55	
1554,138	-58,44	
1554,140	-58,24	
1554,142	-58,50	
1554,144	-58,59	
1554,146	-58,39	
1554,148	-58,38	
1554,150	-58,28	
1554,152	-58,60	
1554,154	-58,54	
1554,156	-58,30	
1554,158	-58,21	
1554,160	-58,27	
1554,162	-58,28	
1554,164	-58,06	
1554,166	-58,10	
1554,168	-58,63	
1554,170	-59,05	
1554,172	-58,48	
1554,174	-58,08	
1554,176	-58,23	
1554,178	-58,68	
1554,180	-58,77	
1554,182	-58,17	
1554,184	-58,16	
1554,186	-58,79	
1554,188	-58,66	
1554,190	-58,46	
1554,192	-58,49	
1554,194	-58,41	
1554,196	-58,34	
1554,198	-58,51	
1554,200	-58,62	
1554,202	-58,50	
1554,204	-58,75	
1554,206	-58,72	
1554,208	-58,90	
1554,210	-58,45	
1554,212	-58,43	
1554,214	-58,42	
1554,216	-58,67	
1554,218	-58,28	
1554,220	-58,28	
1554,222	-58,32	
1554,224	-58,30	
1554,226	-58,41	
1554,228	-58,36	
1554,230	-58,34	
1554,232	-58,70	
1554,234	-59,10	
1554,236	-58,63	
1554,238	-58,26	
1554,240	-58,52	
1554,242	-58,67	
1554,244	-58,50	
1554,246	-58,56	
1554,248	-58,85	
1554,250	-58,66	
1554,252	-58,30	
1554,254	-58,36	
1554,256	-58,55	
1554,258	-58,37	
1554,260	-58,45	
1554,262	-58,91	
1554,264	-58,19	
1554,266	-58,69	
1554,268	-58,88	
1554,270	-58,60	
1554,272	-58,79	
1554,274	-58,43	
1554,276	-58,39	
1554,278	-58,47	
1554,280	-58,60	
1554,282	-58,64	
1554,284	-58,93	
1554,286	-59,00	
1554,288	-58,80	
1554,290	-58,69	
1554,292	-58,32	
1554,294	-58,22	
1554,296	-58,24	
1554,298	-58,44	
1554,300	-58,74	
1554,302	-58,73	
1554,304	-58,07	
1554,306	-59,18	
1554,308	-58,89	
1554,310	-58,48	
1554,312	-58,56	
1554,314	-58,85	
1554,316	-58,72	
1554,318	-58,32	
1554,320	-58,50	
1554,322	-58,53	
1554,324	-58,45	
1554,326	-58,46	
1554,328	-58,14	
1554,330	-58,96	
1554,332	-58,53	
1554,334	-58,95	
1554,336	-58,57	
1554,338	-57,99	
1554,340	-58,13	
1554,342	-58,56	
1554,344	-58,94	
1554,346	-58,80	
1554,348	-58,56	
1554,350	-58,63	
1554,352	-58,69	
1554,354	-58,67	
1554,356	-58,14	
1554,358	-58,45	
1554,360	-58,46	
1554,362	-58,47	
1554,364	-58,71	
1554,366	-58,14	
1554,368	-58,17	
1554,370	-58,65	
1554,372	-58,96	
1554,374	-58,89	
1554,376	-58,76	
1554,378	-58,85	
1554,380	-58,42	
1554,382	-58,52	
1554,384	-58,15	
1554,386	-58,42	
1554,388	-58,70	
1554,390	-57,91	
1554,392	-58,23	
1554,394	-58,03	
1554,396	-58,38	
1554,398	-58,91	
1554,400	-59,01	
1554,402	-58,80	
1554,404	-58,89	
1554,406	-58,87	
1554,408	-58,57	
1554,410	-58,79	
1554,412	-58,53	
1554,414	-58,32	
1554,416	-58,46	
1554,418	-58,56	
1554,420	-58,67	
1554,422	-58,36	
1554,424	-58,47	
1554,426	-58,45	
1554,428	-58,53	
1554,430	-58,50	
1554,432	-58,61	
1554,434	-58,64	
1554,436	-58,69	
1554,438	-59,12	
1554,440	-58,44	
1554,442	-58,45	
1554,444	-58,56	
1554,446	-58,96	
1554,448	-58,62	
1554,450	-58,83	
1554,452	-58,64	
1554,454	-58,96	
1554,456	-58,90	
1554,458	-58,57	
1554,460	-58,70	
1554,462	-58,77	
1554,464	-58,56	
1554,466	-58,58	
1554,468	-58,67	
1554,470	-58,44	
1554,472	-58,58	
1554,474	-58,44	
1554,476	-58,49	
1554,478	-58,92	
1554,480	-58,73	
1554,482	-58,64	
1554,484	-58,21	
1554,486	-58,79	
1554,488	-58,90	
1554,490	-59,11	
1554,492	-58,84	
1554,494	-58,91	
1554,496	-58,29	
1554,498	-58,21	
1554,500	-58,56	
1554,502	-58,94	
1554,504	-58,94	
1554,506	-58,83	
1554,508	-58,76	
1554,510	-58,96	
1554,512	-58,86	
1554,514	-58,68	
1554,516	-58,81	
1554,518	-58,79	
1554,520	-59,10	
1554,522	-59,16	
1554,524	-58,88	
1554,526	-58,71	
1554,528	-59,09	
1554,530	-58,63	
1554,532	-58,43	
1554,534	-58,51	
1554,536	-59,25	
1554,538	-58,98	
1554,540	-58,81	
1554,542	-59,19	
1554,544	-59,08	
1554,546	-59,49	
1554,548	-58,89	
1554,550	-58,40	
1554,552	-58,58	
1554,554	-59,10	
1554,556	-58,75	
1554,558	-58,31	
1554,560	-58,25	
1554,562	-58,72	
1554,564	-58,93	
1554,566	-58,59	
1554,568	-58,82	
1554,570	-59,08	
1554,572	-58,62	
1554,574	-58,70	
1554,576	-58,70	
1554,578	-58,91	
1554,580	-59,46	
1554,582	-59,54	
1554,584	-59,11	
1554,586	-58,44	
1554,588	-58,70	
1554,590	-58,77	
1554,592	-58,52	
1554,594	-58,67	
1554,596	-58,73	
1554,598	-59,13	
1554,600	-58,98	
1554,602	-58,85	
1554,604	-58,68	
1554,606	-58,71	
1554,608	-58,55	
1554,610	-58,51	
1554,612	-59,05	
1554,614	-58,83	
1554,616	-58,40	
1554,618	-59,06	
1554,620	-59,64	
1554,622	-58,85	
1554,624	-58,71	
1554,626	-58,95	
1554,628	-58,80	
1554,630	-58,74	
1554,632	-58,98	
1554,634	-58,99	
1554,636	-58,87	
1554,638	-58,34	
1554,640	-58,53	
1554,642	-58,93	
1554,644	-58,74	
1554,646	-58,74	
1554,648	-58,96	
1554,650	-59,18	
1554,652	-59,46	
1554,654	-59,29	
1554,656	-58,85	
1554,658	-59,57	
1554,660	-58,68	
1554,662	-59,14	
1554,664	-58,90	
1554,666	-59,14	
1554,668	-58,87	
1554,670	-58,80	
1554,672	-59,19	
1554,674	-58,98	
1554,676	-58,53	
1554,678	-58,99	
1554,680	-59,05	
1554,682	-58,95	
1554,684	-58,82	
1554,686	-58,59	
1554,688	-59,01	
1554,690	-59,29	
1554,692	-59,25	
1554,694	-59,02	
1554,696	-59,30	
1554,698	-59,02	
1554,700	-58,61	
1554,702	-58,58	
1554,704	-58,81	
1554,706	-58,72	
1554,708	-58,95	
1554,710	-59,42	
1554,712	-59,04	
1554,714	-59,19	
1554,716	-58,79	
1554,718	-58,46	
1554,720	-59,07	
1554,722	-59,25	
1554,724	-59,22	
1554,726	-59,23	
1554,728	-59,46	
1554,730	-58,64	
1554,732	-58,67	
1554,734	-58,79	
1554,736	-58,67	
1554,738	-58,88	
1554,740	-58,95	
1554,742	-59,36	
1554,744	-59,51	
1554,746	-58,72	
1554,748	-58,91	
1554,750	-58,87	
1554,752	-58,83	
1554,754	-59,19	
1554,756	-59,02	
1554,758	-58,79	
1554,760	-59,18	
1554,762	-59,11	
1554,764	-58,91	
1554,766	-58,89	
1554,768	-58,91	
1554,770	-59,27	
1554,772	-58,56	
1554,774	-59,26	
1554,776	-59,66	
1554,778	-59,89	
1554,780	-58,88	
1554,782	-59,34	
1554,784	-59,24	
1554,786	-59,31	
1554,788	-59,24	
1554,790	-58,82	
1554,792	-58,86	
1554,794	-59,03	
1554,796	-59,56	
1554,798	-59,37	
1554,800	-58,85	
1554,802	-58,95	
1554,804	-58,96	
1554,806	-58,64	
1554,808	-59,34	
1554,810	-59,06	
1554,812	-58,92	
1554,814	-59,01	
1554,816	-58,88	
1554,818	-58,93	
1554,820	-59,04	
1554,822	-59,34	
1554,824	-59,13	
1554,826	-58,80	
1554,828	-59,01	
1554,830	-59,60	
1554,832	-59,64	
1554,834	-59,20	
1554,836	-59,30	
1554,838	-59,17	
1554,840	-59,43	
1554,842	-59,28	
1554,844	-59,21	
1554,846	-59,22	
1554,848	-58,41	
1554,850	-59,17	
1554,852	-58,62	
1554,854	-58,83	
1554,856	-58,73	
1554,858	-58,81	
1554,860	-59,06	
1554,862	-59,01	
1554,864	-58,80	
1554,866	-59,00	
1554,868	-58,63	
1554,870	-58,68	
1554,872	-59,07	
1554,874	-59,23	
1554,876	-59,31	
1554,878	-59,53	
1554,880	-59,53	
1554,882	-59,41	
1554,884	-59,66	
1554,886	-59,79	
1554,888	-59,47	
1554,890	-59,03	
1554,892	-59,45	
1554,894	-59,42	
1554,896	-59,39	
1554,898	-59,09	
1554,900	-59,05	
1554,902	-59,01	
1554,904	-58,88	
1554,906	-58,73	
1554,908	-58,70	
1554,910	-59,10	
1554,912	-59,79	
1554,914	-59,25	
1554,916	-59,25	
1554,918	-59,20	
1554,920	-59,65	
1554,922	-59,69	
1554,924	-59,21	
1554,926	-59,04	
1554,928	-58,95	
1554,930	-58,93	
1554,932	-59,34	
1554,934	-59,75	
1554,936	-59,48	
1554,938	-58,92	
1554,940	-58,79	
1554,942	-58,98	
1554,944	-59,15	
1554,946	-58,85	
1554,948	-58,91	
1554,950	-59,03	
1554,952	-59,02	
1554,954	-59,37	
1554,956	-59,71	
1554,958	-59,42	
1554,960	-59,44	
1554,962	-59,52	
1554,964	-59,24	
1554,966	-59,18	
1554,968	-59,23	
1554,970	-59,05	
1554,972	-59,13	
1554,974	-59,51	
1554,976	-59,49	
1554,978	-59,91	
1554,980	-60,34	
1554,982	-60,11	
1554,984	-59,55	
1554,986	-59,12	
1554,988	-59,00	
1554,990	-59,18	
1554,992	-58,96	
1554,994	-58,85	
1554,996	-59,38	
1554,998	-59,17	
1555,000	-59,39	
1555,002	-59,11	
1555,004	-59,60	
1555,006	-59,15	
1555,008	-58,66	
1555,010	-58,94	
1555,012	-59,08	
1555,014	-59,02	
1555,016	-58,99	
1555,018	-59,29	
1555,020	-59,40	
1555,022	-58,86	
1555,024	-58,94	
1555,026	-59,34	
1555,028	-59,30	
1555,030	-59,17	
1555,032	-59,45	
1555,034	-59,42	
1555,036	-59,23	
1555,038	-59,30	
1555,040	-59,15	
1555,042	-59,11	
1555,044	-59,10	
1555,046	-58,81	
1555,048	-59,49	
1555,050	-59,44	
1555,052	-59,23	
1555,054	-59,11	
1555,056	-59,22	
1555,058	-59,09	
1555,060	-58,95	
1555,062	-59,31	
1555,064	-59,82	
1555,066	-59,76	
1555,068	-59,40	
1555,070	-59,38	
1555,072	-59,59	
1555,074	-59,55	
1555,076	-59,42	
1555,078	-58,94	
1555,080	-59,16	
1555,082	-58,99	
1555,084	-59,05	
1555,086	-58,79	
1555,088	-58,68	
1555,090	-59,21	
1555,092	-59,59	
1555,094	-58,99	
1555,096	-59,63	
1555,098	-59,24	
1555,100	-59,47	
1555,102	-58,67	
1555,104	-59,41	
1555,106	-59,47	
1555,108	-59,25	
1555,110	-59,23	
1555,112	-59,33	
1555,114	-59,30	
1555,116	-59,18	
1555,118	-59,26	
1555,120	-59,10	
1555,122	-58,59	
1555,124	-58,63	
1555,126	-58,97	
1555,128	-59,51	
1555,130	-59,60	
1555,132	-59,03	
1555,134	-58,96	
1555,136	-59,12	
1555,138	-59,25	
1555,140	-59,22	
1555,142	-59,25	
1555,144	-59,28	
1555,146	-59,17	
1555,148	-59,34	
1555,150	-59,52	
1555,152	-59,18	
1555,154	-58,83	
1555,156	-59,29	
1555,158	-59,35	
1555,160	-59,75	
1555,162	-59,54	
1555,164	-59,22	
1555,166	-59,26	
1555,168	-59,40	
1555,170	-59,10	
1555,172	-59,15	
1555,174	-59,40	
1555,176	-58,96	
1555,178	-58,99	
1555,180	-58,99	
1555,182	-59,45	
1555,184	-59,10	
1555,186	-59,09	
1555,188	-59,13	
1555,190	-58,63	
1555,192	-58,54	
1555,194	-59,03	
1555,196	-59,23	
1555,198	-59,07	
1555,200	-59,13	
1555,202	-59,31	
1555,204	-59,24	
1555,206	-59,04	
1555,208	-58,92	
1555,210	-59,03	
1555,212	-59,29	
1555,214	-58,85	
1555,216	-58,59	
1555,218	-59,02	
1555,220	-59,26	
1555,222	-58,83	
1555,224	-59,38	
1555,226	-59,47	
1555,228	-59,51	
1555,230	-58,92	
1555,232	-59,08	
1555,234	-59,01	
1555,236	-59,11	
1555,238	-59,07	
1555,240	-58,71	
1555,242	-58,79	
1555,244	-59,09	
1555,246	-58,46	
1555,248	-59,14	
1555,250	-59,04	
1555,252	-59,23	
1555,254	-59,03	
1555,256	-59,18	
1555,258	-59,27	
1555,260	-58,99	
1555,262	-59,28	
1555,264	-59,98	
1555,266	-59,68	
1555,268	-59,19	
1555,270	-59,41	
1555,272	-58,73	
1555,274	-58,46	
1555,276	-58,80	
1555,278	-59,38	
1555,280	-59,25	
1555,282	-59,13	
1555,284	-59,30	
1555,286	-59,25	
1555,288	-59,33	
1555,290	-59,40	
1555,292	-58,90	
1555,294	-59,39	
1555,296	-59,22	
1555,298	-58,68	
1555,300	-58,99	
1555,302	-59,13	
1555,304	-59,30	
1555,306	-59,60	
1555,308	-59,28	
1555,310	-58,48	
1555,312	-58,56	
1555,314	-59,06	
1555,316	-58,63	
1555,318	-58,74	
1555,320	-59,03	
1555,322	-58,90	
1555,324	-58,94	
1555,326	-59,12	
1555,328	-59,17	
1555,330	-58,84	
1555,332	-58,68	
1555,334	-59,49	
1555,336	-59,35	
1555,338	-59,17	
1555,340	-58,59	
1555,342	-58,55	
1555,344	-59,10	
1555,346	-58,83	
1555,348	-58,67	
1555,350	-58,76	
1555,352	-58,92	
1555,354	-58,66	
1555,356	-58,55	
1555,358	-58,95	
1555,360	-59,00	
1555,362	-58,59	
1555,364	-59,07	
1555,366	-59,03	
1555,368	-59,17	
1555,370	-59,04	
1555,372	-58,92	
1555,374	-58,78	
1555,376	-58,60	
1555,378	-58,86	
1555,380	-59,01	
1555,382	-59,05	
1555,384	-58,91	
1555,386	-58,87	
1555,388	-58,81	
1555,390	-58,96	
1555,392	-59,00	
1555,394	-59,02	
1555,396	-59,39	
1555,398	-59,21	
1555,400	-58,44	
1555,402	-58,50	
1555,404	-58,28	
1555,406	-58,28	
1555,408	-58,84	
1555,410	-58,71	
1555,412	-58,81	
1555,414	-59,42	
1555,416	-59,31	
1555,418	-58,63	
1555,420	-58,41	
1555,422	-59,21	
1555,424	-58,50	
1555,426	-58,94	
1555,428	-59,05	
1555,430	-58,71	
1555,432	-58,91	
1555,434	-58,93	
1555,436	-58,73	
1555,438	-58,73	
1555,440	-58,84	
1555,442	-58,81	
1555,444	-58,93	
1555,446	-58,96	
1555,448	-58,78	
1555,450	-58,68	
1555,452	-58,66	
1555,454	-59,06	
1555,456	-58,84	
1555,458	-58,86	
1555,460	-58,91	
1555,462	-58,78	
1555,464	-58,68	
1555,466	-58,50	
1555,468	-58,58	
1555,470	-58,91	
1555,472	-58,96	
1555,474	-59,21	
1555,476	-58,83	
1555,478	-58,68	
1555,480	-58,70	
1555,482	-58,72	
1555,484	-58,65	
1555,486	-58,85	
1555,488	-58,65	
1555,490	-58,51	
1555,492	-58,65	
1555,494	-58,25	
1555,496	-58,18	
1555,498	-59,05	
1555,500	-58,12	
1555,502	-58,85	
1555,504	-58,60	
1555,506	-58,55	
1555,508	-58,93	
1555,510	-58,62	
1555,512	-58,20	
1555,514	-58,55	
1555,516	-58,80	
1555,518	-58,59	
1555,520	-58,82	
1555,522	-58,85	
1555,524	-58,65	
1555,526	-58,42	
1555,528	-58,51	
1555,530	-58,53	
1555,532	-58,67	
1555,534	-58,88	
1555,536	-58,91	
1555,538	-58,78	
1555,540	-58,68	
1555,542	-58,66	
1555,544	-58,71	
1555,546	-58,76	
1555,548	-58,58	
1555,550	-58,64	
1555,552	-58,83	
1555,554	-58,73	
1555,556	-58,67	
1555,558	-58,55	
1555,560	-58,65	
1555,562	-58,74	
1555,564	-58,56	
1555,566	-59,00	
1555,568	-58,97	
1555,570	-58,35	
1555,572	-58,61	
1555,574	-58,71	
1555,576	-58,74	
1555,578	-58,83	
1555,580	-58,80	
1555,582	-58,89	
1555,584	-58,89	
1555,586	-58,47	
1555,588	-58,52	
1555,590	-58,58	
1555,592	-58,29	
1555,594	-58,72	
1555,596	-58,52	
1555,598	-58,37	
1555,600	-58,35	
1555,602	-58,24	
1555,604	-58,22	
1555,606	-58,55	
1555,608	-58,85	
1555,610	-58,98	
1555,612	-59,20	
1555,614	-59,00	
1555,616	-58,85	
1555,618	-58,43	
1555,620	-58,35	
1555,622	-58,30	
1555,624	-58,27	
1555,626	-58,45	
1555,628	-58,36	
1555,630	-58,69	
1555,632	-58,77	
1555,634	-58,65	
1555,636	-58,35	
1555,638	-58,19	
1555,640	-58,55	
1555,642	-58,33	
1555,644	-58,18	
1555,646	-58,65	
1555,648	-58,57	
1555,650	-58,67	
1555,652	-59,17	
1555,654	-58,44	
1555,656	-58,10	
1555,658	-58,49	
1555,660	-58,36	
1555,662	-58,47	
1555,664	-58,53	
1555,666	-58,35	
1555,668	-58,49	
1555,670	-58,55	
1555,672	-58,56	
1555,674	-58,58	
1555,676	-58,64	
1555,678	-58,80	
1555,680	-58,42	
1555,682	-58,03	
1555,684	-58,12	
1555,686	-58,69	
1555,688	-58,37	
1555,690	-58,39	
1555,692	-58,05	
1555,694	-58,78	
1555,696	-58,38	
1555,698	-58,35	
1555,700	-58,33	
1555,702	-58,49	
1555,704	-58,28	
1555,706	-58,24	
1555,708	-58,34	
1555,710	-58,55	
1555,712	-58,54	
1555,714	-58,45	
1555,716	-58,49	
1555,718	-58,30	
1555,720	-58,44	
1555,722	-58,31	
1555,724	-58,21	
1555,726	-57,87	
1555,728	-57,97	
1555,730	-57,93	
1555,732	-58,26	
1555,734	-58,51	
1555,736	-58,37	
1555,738	-58,53	
1555,740	-58,17	
1555,742	-58,26	
1555,744	-58,47	
1555,746	-58,46	
1555,748	-58,61	
1555,750	-58,40	
1555,752	-58,20	
1555,754	-58,16	
1555,756	-58,23	
1555,758	-58,50	
1555,760	-58,51	
1555,762	-58,38	
1555,764	-58,52	
1555,766	-58,14	
1555,768	-58,42	
1555,770	-58,58	
1555,772	-58,24	
1555,774	-58,19	
1555,776	-58,26	
1555,778	-58,63	
1555,780	-58,25	
1555,782	-58,43	
1555,784	-58,45	
1555,786	-58,64	
1555,788	-58,14	
1555,790	-58,04	
1555,792	-58,47	
1555,794	-58,30	
1555,796	-58,10	
1555,798	-58,25	
1555,800	-58,22	
1555,802	-58,23	
1555,804	-58,37	
1555,806	-58,17	
1555,808	-57,89	
1555,810	-58,07	
1555,812	-58,60	
1555,814	-58,37	
1555,816	-58,04	
1555,818	-58,32	
1555,820	-58,07	
1555,822	-57,96	
1555,824	-58,33	
1555,826	-58,00	
1555,828	-58,40	
1555,830	-58,18	
1555,832	-58,40	
1555,834	-58,19	
1555,836	-58,31	
1555,838	-58,32	
1555,840	-58,33	
1555,842	-58,18	
1555,844	-58,91	
1555,846	-58,40	
1555,848	-58,58	
1555,850	-58,49	
1555,852	-58,06	
1555,854	-57,92	
1555,856	-58,08	
1555,858	-58,29	
1555,860	-58,26	
1555,862	-58,08	
1555,864	-58,42	
1555,866	-58,23	
1555,868	-57,82	
1555,870	-58,09	
1555,872	-58,27	
1555,874	-58,49	
1555,876	-58,64	
1555,878	-58,83	
1555,880	-58,49	
1555,882	-58,47	
1555,884	-58,42	
1555,886	-58,24	
1555,888	-58,37	
1555,890	-58,52	
1555,892	-58,11	
1555,894	-58,00	
1555,896	-58,04	
1555,898	-58,07	
1555,900	-58,07	
1555,902	-58,10	
1555,904	-58,20	
1555,906	-58,37	
1555,908	-58,45	
1555,910	-58,53	
1555,912	-58,30	
1555,914	-58,47	
1555,916	-58,51	
1555,918	-58,12	
1555,920	-58,43	
1555,922	-58,19	
1555,924	-58,13	
1555,926	-58,15	
1555,928	-57,98	
1555,930	-57,98	
1555,932	-58,45	
1555,934	-58,15	
1555,936	-57,97	
1555,938	-58,06	
1555,940	-58,40	
1555,942	-58,47	
1555,944	-58,67	
1555,946	-58,33	
1555,948	-58,22	
1555,950	-58,53	
1555,952	-58,21	
1555,954	-58,47	
1555,956	-58,02	
1555,958	-58,07	
1555,960	-58,31	
1555,962	-58,33	
1555,964	-58,51	
1555,966	-58,47	
1555,968	-58,19	
1555,970	-58,29	
1555,972	-58,31	
1555,974	-58,20	
1555,976	-58,37	
1555,978	-58,51	
1555,980	-58,16	
1555,982	-58,38	
1555,984	-58,51	
1555,986	-58,08	
1555,988	-58,02	
1555,990	-58,74	
1555,992	-58,43	
1555,994	-58,42	
1555,996	-58,56	
1555,998	-57,94	
1556,000	-58,35	
1556,002	-58,39	
1556,004	-58,71	
1556,006	-58,35	
1556,008	-58,01	
1556,010	-58,07	
1556,012	-58,13	
1556,014	-58,46	
1556,016	-58,39	
1556,018	-58,28	
1556,020	-58,56	
1556,022	-58,54	
1556,024	-58,25	
1556,026	-58,35	
1556,028	-58,34	
1556,030	-58,11	
1556,032	-58,31	
1556,034	-58,16	
1556,036	-58,25	
1556,038	-58,73	
1556,040	-58,62	
1556,042	-58,41	
1556,044	-58,32	
1556,046	-58,41	
1556,048	-58,23	
1556,050	-58,91	
1556,052	-58,32	
1556,054	-58,37	
1556,056	-58,26	
1556,058	-58,40	
1556,060	-58,28	
1556,062	-58,42	
1556,064	-58,50	
1556,066	-58,26	
1556,068	-58,13	
1556,070	-58,15	
1556,072	-58,36	
1556,074	-58,61	
1556,076	-58,62	
1556,078	-58,51	
1556,080	-58,47	
1556,082	-58,18	
1556,084	-58,65	
1556,086	-58,32	
1556,088	-58,30	
1556,090	-57,95	
1556,092	-58,38	
1556,094	-58,28	
1556,096	-58,50	
1556,098	-58,27	
1556,100	-58,73	
1556,102	-59,09	
1556,104	-58,63	
1556,106	-58,55	
1556,108	-58,57	
1556,110	-58,52	
1556,112	-58,52	
1556,114	-58,73	
1556,116	-58,69	
1556,118	-58,39	
1556,120	-58,47	
1556,122	-58,54	
1556,124	-58,43	
1556,126	-58,07	
1556,128	-58,22	
1556,130	-58,35	
1556,132	-58,63	
1556,134	-58,92	
1556,136	-58,67	
1556,138	-58,36	
1556,140	-58,34	
1556,142	-58,50	
1556,144	-58,68	
1556,146	-58,66	
1556,148	-58,34	
1556,150	-58,60	
1556,152	-58,24	
1556,154	-58,54	
1556,156	-58,56	
1556,158	-58,77	
1556,160	-58,58	
1556,162	-58,34	
1556,164	-58,41	
1556,166	-58,46	
1556,168	-58,57	
1556,170	-58,80	
1556,172	-58,71	
1556,174	-58,24	
1556,176	-58,45	
1556,178	-58,46	
1556,180	-58,57	
1556,182	-57,62	
1556,184	-58,04	
1556,186	-58,32	
1556,188	-58,31	
1556,190	-58,46	
1556,192	-58,37	
1556,194	-58,54	
1556,196	-58,41	
1556,198	-58,41	
1556,200	-58,54	
1556,202	-58,58	
1556,204	-59,13	
1556,206	-59,40	
1556,208	-58,75	
1556,210	-58,40	
1556,212	-58,67	
1556,214	-58,58	
1556,216	-58,58	
1556,218	-58,67	
1556,220	-58,25	
1556,222	-58,18	
1556,224	-58,63	
1556,226	-58,82	
1556,228	-58,85	
1556,230	-58,78	
1556,232	-58,04	
1556,234	-58,66	
1556,236	-58,98	
1556,238	-59,26	
1556,240	-58,59	
1556,242	-58,64	
1556,244	-58,48	
1556,246	-58,73	
1556,248	-58,64	
1556,250	-58,44	
1556,252	-58,74	
1556,254	-58,84	
1556,256	-58,64	
1556,258	-58,40	
1556,260	-58,50	
1556,262	-58,54	
1556,264	-58,26	
1556,266	-58,43	
1556,268	-58,88	
1556,270	-59,18	
1556,272	-58,73	
1556,274	-59,04	
1556,276	-59,16	
1556,278	-58,78	
1556,280	-58,77	
1556,282	-58,67	
1556,284	-58,89	
1556,286	-58,96	
1556,288	-58,59	
1556,290	-58,61	
1556,292	-58,75	
1556,294	-58,14	
1556,296	-58,33	
1556,298	-58,51	
1556,300	-58,49	
1556,302	-58,98	
1556,304	-58,82	
1556,306	-58,88	
1556,308	-58,88	
1556,310	-58,79	
1556,312	-58,98	
1556,314	-59,21	
1556,316	-58,79	
1556,318	-58,34	
1556,320	-58,78	
1556,322	-58,67	
1556,324	-58,73	
1556,326	-58,52	
1556,328	-58,43	
1556,330	-58,36	
1556,332	-58,48	
1556,334	-58,97	
1556,336	-58,57	
1556,338	-58,49	
1556,340	-58,86	
1556,342	-58,46	
1556,344	-58,67	
1556,346	-58,77	
1556,348	-58,63	
1556,350	-58,64	
1556,352	-58,86	
1556,354	-59,06	
1556,356	-58,51	
1556,358	-58,22	
1556,360	-59,21	
1556,362	-59,21	
1556,364	-59,35	
1556,366	-58,80	
1556,368	-58,86	
1556,370	-59,11	
1556,372	-59,10	
1556,374	-59,05	
1556,376	-58,90	
1556,378	-59,36	
1556,380	-59,44	
1556,382	-59,26	
1556,384	-58,42	
1556,386	-58,47	
1556,388	-58,88	
1556,390	-59,15	
1556,392	-59,05	
1556,394	-58,71	
1556,396	-58,57	
1556,398	-58,85	
1556,400	-59,49	
1556,402	-58,73	
1556,404	-59,34	
1556,406	-58,78	
1556,408	-58,74	
1556,410	-59,02	
1556,412	-59,46	
1556,414	-59,34	
1556,416	-59,09	
1556,418	-59,21	
1556,420	-58,92	
1556,422	-58,75	
1556,424	-58,87	
1556,426	-58,64	
1556,428	-58,86	
1556,430	-58,89	
1556,432	-59,29	
1556,434	-59,04	
1556,436	-58,76	
1556,438	-58,85	
1556,440	-59,12	
1556,442	-59,18	
1556,444	-58,77	
1556,446	-58,55	
1556,448	-59,06	
1556,450	-58,67	
1556,452	-58,64	
1556,454	-58,42	
1556,456	-58,94	
1556,458	-59,13	
1556,460	-58,92	
1556,462	-58,86	
1556,464	-58,85	
1556,466	-59,04	
1556,468	-59,04	
1556,470	-58,99	
1556,472	-59,55	
1556,474	-59,34	
1556,476	-59,00	
1556,478	-59,09	
1556,480	-58,83	
1556,482	-58,64	
1556,484	-58,91	
1556,486	-58,79	
1556,488	-59,09	
1556,490	-59,48	
1556,492	-59,05	
1556,494	-59,03	
1556,496	-59,03	
1556,498	-58,58	
1556,500	-59,20	
1556,502	-59,06	
1556,504	-58,95	
1556,506	-58,85	
1556,508	-58,70	
1556,510	-58,48	
1556,512	-58,59	
1556,514	-59,07	
1556,516	-59,39	
1556,518	-59,48	
1556,520	-58,92	
1556,522	-59,03	
1556,524	-59,12	
1556,526	-59,28	
1556,528	-59,44	
1556,530	-58,86	
1556,532	-58,97	
1556,534	-59,20	
1556,536	-58,69	
1556,538	-58,69	
1556,540	-59,12	
1556,542	-58,76	
1556,544	-59,08	
1556,546	-59,00	
1556,548	-59,13	
1556,550	-58,96	
1556,552	-59,57	
1556,554	-59,03	
1556,556	-58,79	
1556,558	-59,07	
1556,560	-58,97	
1556,562	-58,90	
1556,564	-59,10	
1556,566	-59,04	
1556,568	-58,90	
1556,570	-58,60	
1556,572	-58,93	
1556,574	-59,07	
1556,576	-59,10	
1556,578	-59,21	
1556,580	-58,71	
1556,582	-59,02	
1556,584	-59,28	
1556,586	-58,98	
1556,588	-58,69	
1556,590	-58,63	
1556,592	-58,77	
1556,594	-58,98	
1556,596	-59,43	
1556,598	-59,19	
1556,600	-59,29	
1556,602	-59,21	
1556,604	-59,05	
1556,606	-59,52	
1556,608	-59,30	
1556,610	-59,61	
1556,612	-59,76	
1556,614	-59,05	
1556,616	-58,99	
1556,618	-58,96	
1556,620	-59,15	
1556,622	-59,26	
1556,624	-59,42	
1556,626	-59,36	
1556,628	-59,04	
1556,630	-59,30	
1556,632	-58,69	
1556,634	-59,13	
1556,636	-58,46	
1556,638	-58,79	
1556,640	-59,26	
1556,642	-59,16	
1556,644	-59,53	
1556,646	-59,20	
1556,648	-59,09	
1556,650	-59,36	
1556,652	-59,38	
1556,654	-59,38	
1556,656	-58,83	
1556,658	-58,98	
1556,660	-59,34	
1556,662	-59,31	
1556,664	-58,93	
1556,666	-59,11	
1556,668	-59,42	
1556,670	-59,32	
1556,672	-59,54	
1556,674	-59,44	
1556,676	-59,05	
1556,678	-59,25	
1556,680	-59,36	
1556,682	-59,03	
1556,684	-59,39	
1556,686	-59,13	
1556,688	-59,56	
1556,690	-59,10	
1556,692	-58,99	
1556,694	-59,11	
1556,696	-58,98	
1556,698	-59,61	
1556,700	-59,36	
1556,702	-58,86	
1556,704	-58,74	
1556,706	-58,89	
1556,708	-59,14	
1556,710	-59,28	
1556,712	-59,18	
1556,714	-59,33	
1556,716	-59,56	
1556,718	-59,07	
1556,720	-59,46	
1556,722	-59,26	
1556,724	-58,48	
1556,726	-58,94	
1556,728	-59,31	
1556,730	-59,82	
1556,732	-59,33	
1556,734	-59,27	
1556,736	-59,51	
1556,738	-58,79	
1556,740	-59,09	
1556,742	-59,01	
1556,744	-58,58	
1556,746	-58,71	
1556,748	-59,37	
1556,750	-59,65	
1556,752	-59,42	
1556,754	-59,02	
1556,756	-58,88	
1556,758	-59,08	
1556,760	-59,12	
1556,762	-59,10	
1556,764	-59,34	
1556,766	-59,48	
1556,768	-59,20	
1556,770	-59,27	
1556,772	-59,08	
1556,774	-58,78	
1556,776	-59,38	
1556,778	-59,44	
1556,780	-59,11	
1556,782	-59,46	
1556,784	-58,96	
1556,786	-58,93	
1556,788	-59,35	
1556,790	-59,21	
1556,792	-59,69	
1556,794	-59,53	
1556,796	-59,42	
1556,798	-58,98	
1556,800	-58,60	
1556,802	-59,45	
1556,804	-59,90	
1556,806	-59,43	
1556,808	-59,52	
1556,810	-59,41	
1556,812	-58,90	
1556,814	-58,97	
1556,816	-59,29	
1556,818	-59,50	
1556,820	-59,02	
1556,822	-59,30	
1556,824	-58,81	
1556,826	-59,25	
1556,828	-58,69	
1556,830	-59,65	
1556,832	-58,86	
1556,834	-59,07	
1556,836	-59,45	
1556,838	-59,58	
1556,840	-59,48	
1556,842	-59,29	
1556,844	-59,30	
1556,846	-58,80	
1556,848	-58,79	
1556,850	-59,29	
1556,852	-58,58	
1556,854	-59,39	
1556,856	-58,89	
1556,858	-59,26	
1556,860	-59,10	
1556,862	-59,08	
1556,864	-59,45	
1556,866	-59,60	
1556,868	-58,93	
1556,870	-58,89	
1556,872	-58,94	
1556,874	-59,29	
1556,876	-59,01	
1556,878	-59,28	
1556,880	-59,28	
1556,882	-59,16	
1556,884	-59,33	
1556,886	-59,47	
1556,888	-59,39	
1556,890	-59,42	
1556,892	-60,40	
1556,894	-59,30	
1556,896	-58,89	
1556,898	-59,34	
1556,900	-58,65	
1556,902	-58,71	
1556,904	-58,71	
1556,906	-58,74	
1556,908	-58,69	
1556,910	-59,29	
1556,912	-59,83	
1556,914	-59,63	
1556,916	-59,28	
1556,918	-59,03	
1556,920	-59,27	
1556,922	-59,18	
1556,924	-58,84	
1556,926	-59,55	
1556,928	-59,07	
1556,930	-59,41	
1556,932	-58,99	
1556,934	-59,39	
1556,936	-59,25	
1556,938	-59,34	
1556,940	-59,30	
1556,942	-59,25	
1556,944	-58,91	
1556,946	-58,66	
1556,948	-59,21	
1556,950	-59,26	
1556,952	-58,95	
1556,954	-59,72	
1556,956	-59,04	
1556,958	-58,88	
1556,960	-58,76	
1556,962	-59,09	
1556,964	-58,81	
1556,966	-58,79	
1556,968	-58,94	
1556,970	-58,82	
1556,972	-58,96	
1556,974	-59,37	
1556,976	-59,72	
1556,978	-59,31	
1556,980	-59,35	
1556,982	-58,98	
1556,984	-58,74	
1556,986	-59,49	
1556,988	-59,22	
1556,990	-59,29	
1556,992	-58,63	
1556,994	-59,18	
1556,996	-58,72	
1556,998	-58,91	
1557,000	-58,77	
1557,002	-58,86	
1557,004	-59,10	
1557,006	-59,12	
1557,008	-58,88	
1557,010	-59,17	
1557,012	-59,46	
1557,014	-59,42	
1557,016	-59,42	
1557,018	-59,29	
1557,020	-58,82	
1557,022	-59,16	
1557,024	-59,09	
1557,026	-59,34	
1557,028	-59,08	
1557,030	-59,09	
1557,032	-59,12	
1557,034	-58,91	
1557,036	-58,87	
1557,038	-59,14	
1557,040	-59,05	
1557,042	-58,66	
1557,044	-58,67	
1557,046	-59,22	
1557,048	-59,54	
1557,050	-59,07	
1557,052	-58,71	
1557,054	-58,99	
1557,056	-59,34	
1557,058	-58,89	
1557,060	-58,81	
1557,062	-59,31	
1557,064	-59,02	
1557,066	-59,12	
1557,068	-58,59	
1557,070	-58,82	
1557,072	-58,74	
1557,074	-58,88	
1557,076	-58,77	
1557,078	-58,89	
1557,080	-59,52	
1557,082	-59,16	
1557,084	-58,56	
1557,086	-58,58	
1557,088	-59,31	
1557,090	-59,20	
1557,092	-58,87	
1557,094	-58,85	
1557,096	-58,95	
1557,098	-59,42	
1557,100	-59,41	
1557,102	-59,05	
1557,104	-59,02	
1557,106	-59,16	
1557,108	-59,01	
1557,110	-58,86	
1557,112	-59,58	
1557,114	-59,39	
1557,116	-59,01	
1557,118	-58,85	
1557,120	-59,09	
1557,122	-58,86	
1557,124	-58,85	
1557,126	-59,06	
1557,128	-59,19	
1557,130	-59,30	
1557,132	-59,15	
1557,134	-59,08	
1557,136	-59,12	
1557,138	-59,22	
1557,140	-59,06	
1557,142	-59,26	
1557,144	-58,64	
1557,146	-59,40	
1557,148	-59,08	
1557,150	-58,67	
1557,152	-58,87	
1557,154	-58,84	
1557,156	-58,64	
1557,158	-58,78	
1557,160	-58,81	
1557,162	-58,80	
1557,164	-59,16	
1557,166	-58,79	
1557,168	-58,92	
1557,170	-59,04	
1557,172	-58,85	
1557,174	-59,09	
1557,176	-59,39	
1557,178	-59,22	
1557,180	-59,01	
1557,182	-58,95	
1557,184	-58,89	
1557,186	-58,77	
1557,188	-58,85	
1557,190	-59,06	
1557,192	-59,27	
1557,194	-59,35	
1557,196	-58,96	
1557,198	-59,00	
1557,200	-59,06	
1557,202	-58,84	
1557,204	-59,14	
1557,206	-58,87	
1557,208	-58,70	
1557,210	-58,73	
1557,212	-58,63	
1557,214	-58,92	
1557,216	-58,84	
1557,218	-59,48	
1557,220	-59,25	
1557,222	-58,67	
1557,224	-59,27	
1557,226	-58,86	
1557,228	-58,94	
1557,230	-58,70	
1557,232	-58,71	
1557,234	-58,89	
1557,236	-58,71	
1557,238	-58,54	
1557,240	-58,67	
1557,242	-58,70	
1557,244	-58,73	
1557,246	-58,78	
1557,248	-59,29	
1557,250	-58,87	
1557,252	-58,62	
1557,254	-58,59	
1557,256	-58,53	
1557,258	-58,71	
1557,260	-58,88	
1557,262	-58,59	
1557,264	-58,73	
1557,266	-58,64	
1557,268	-58,94	
1557,270	-58,92	
1557,272	-58,97	
1557,274	-58,68	
1557,276	-58,90	
1557,278	-58,78	
1557,280	-58,70	
1557,282	-58,70	
1557,284	-58,49	
1557,286	-58,67	
1557,288	-59,18	
1557,290	-58,61	
1557,292	-58,94	
1557,294	-58,66	
1557,296	-59,26	
1557,298	-58,88	
1557,300	-58,38	
1557,302	-58,41	
1557,304	-58,75	
1557,306	-58,77	
1557,308	-58,86	
1557,310	-58,98	
1557,312	-59,19	
1557,314	-58,36	
1557,316	-58,74	
1557,318	-59,11	
1557,320	-58,96	
1557,322	-58,71	
1557,324	-58,55	
1557,326	-58,51	
1557,328	-58,40	
1557,330	-58,76	
1557,332	-59,03	
1557,334	-58,50	
1557,336	-58,35	
1557,338	-58,59	
1557,340	-59,17	
1557,342	-58,95	
1557,344	-58,50	
1557,346	-58,58	
1557,348	-59,09	
1557,350	-59,03	
1557,352	-58,65	
1557,354	-58,66	
1557,356	-58,70	
1557,358	-58,46	
1557,360	-58,66	
1557,362	-58,89	
1557,364	-58,88	
1557,366	-58,77	
1557,368	-58,61	
1557,370	-58,49	
1557,372	-58,45	
1557,374	-58,24	
1557,376	-58,48	
1557,378	-58,45	
1557,380	-58,66	
1557,382	-58,92	
1557,384	-59,06	
1557,386	-58,58	
1557,388	-58,12	
1557,390	-58,12	
1557,392	-58,49	
1557,394	-58,59	
1557,396	-58,48	
1557,398	-58,48	
1557,400	-58,70	
1557,402	-58,74	
1557,404	-58,53	
1557,406	-58,69	
1557,408	-58,53	
1557,410	-58,45	
1557,412	-58,51	
1557,414	-58,69	
1557,416	-58,70	
1557,418	-58,72	
1557,420	-58,94	
1557,422	-58,70	
1557,424	-58,40	
1557,426	-58,88	
1557,428	-58,17	
1557,430	-58,45	
1557,432	-58,41	
1557,434	-58,46	
1557,436	-58,75	
1557,438	-58,99	
1557,440	-59,24	
1557,442	-59,30	
1557,444	-58,75	
1557,446	-58,39	
1557,448	-58,34	
1557,450	-58,17	
1557,452	-58,36	
1557,454	-58,74	
1557,456	-58,46	
1557,458	-58,61	
1557,460	-58,77	
1557,462	-58,78	
1557,464	-58,47	
1557,466	-58,42	
1557,468	-58,46	
1557,470	-58,59	
1557,472	-58,55	
1557,474	-58,89	
1557,476	-59,06	
1557,478	-58,98	
1557,480	-58,79	
1557,482	-58,57	
1557,484	-58,77	
1557,486	-58,70	
1557,488	-58,41	
1557,490	-58,31	
1557,492	-58,55	
1557,494	-59,12	
1557,496	-58,46	
1557,498	-58,49	
1557,500	-58,56	
1557,502	-58,33	
1557,504	-58,35	
1557,506	-58,61	
1557,508	-58,67	
1557,510	-58,81	
1557,512	-58,38	
1557,514	-58,26	
1557,516	-58,26	
1557,518	-58,23	
1557,520	-58,28	
1557,522	-58,36	
1557,524	-58,52	
1557,526	-59,28	
1557,528	-58,77	
1557,530	-58,97	
1557,532	-58,60	
1557,534	-58,21	
1557,536	-57,95	
1557,538	-58,11	
1557,540	-58,49	
1557,542	-58,47	
1557,544	-58,63	
1557,546	-58,54	
1557,548	-58,81	
1557,550	-58,51	
1557,552	-58,29	
1557,554	-58,40	
1557,556	-58,60	
1557,558	-58,63	
1557,560	-58,19	
1557,562	-58,25	
1557,564	-58,65	
1557,566	-58,64	
1557,568	-58,88	
1557,570	-58,21	
1557,572	-58,50	
1557,574	-58,41	
1557,576	-58,38	
1557,578	-58,25	
1557,580	-58,28	
1557,582	-58,64	
1557,584	-58,58	
1557,586	-58,10	
1557,588	-58,17	
1557,590	-58,06	
1557,592	-58,47	
1557,594	-58,37	
1557,596	-58,32	
1557,598	-58,47	
1557,600	-58,60	
1557,602	-58,33	
1557,604	-58,22	
1557,606	-58,29	
1557,608	-58,37	
1557,610	-59,07	
1557,612	-58,97	
1557,614	-58,45	
1557,616	-58,63	
1557,618	-58,83	
1557,620	-58,51	
1557,622	-58,52	
1557,624	-58,49	
1557,626	-58,50	
1557,628	-58,59	
1557,630	-58,92	
1557,632	-58,78	
1557,634	-58,56	
1557,636	-58,15	
1557,638	-57,99	
1557,640	-58,18	
1557,642	-58,47	
1557,644	-58,65	
1557,646	-58,65	
1557,648	-58,55	
1557,650	-58,65	
1557,652	-58,83	
1557,654	-58,81	
1557,656	-58,33	
1557,658	-58,27	
1557,660	-58,20	
1557,662	-57,75	
1557,664	-58,03	
1557,666	-58,40	
1557,668	-58,05	
1557,670	-58,20	
1557,672	-58,40	
1557,674	-58,63	
1557,676	-59,13	
1557,678	-58,74	
1557,680	-58,81	
1557,682	-58,51	
1557,684	-58,75	
1557,686	-58,43	
1557,688	-58,34	
1557,690	-58,22	
1557,692	-58,27	
1557,694	-58,41	
1557,696	-58,21	
1557,698	-58,83	
1557,700	-58,30	
1557,702	-58,48	
1557,704	-58,42	
1557,706	-58,58	
1557,708	-58,78	
1557,710	-58,97	
1557,712	-58,80	
1557,714	-58,32	
1557,716	-58,08	
1557,718	-58,47	
1557,720	-58,67	
1557,722	-58,41	
1557,724	-58,18	
1557,726	-58,31	
1557,728	-58,79	
1557,730	-58,90	
1557,732	-58,69	
1557,734	-58,49	
1557,736	-58,26	
1557,738	-58,18	
1557,740	-59,11	
1557,742	-58,95	
1557,744	-58,25	
1557,746	-58,71	
1557,748	-59,22	
1557,750	-59,02	
1557,752	-58,64	
1557,754	-58,39	
1557,756	-58,36	
1557,758	-58,30	
1557,760	-58,23	
1557,762	-58,69	
1557,764	-58,58	
1557,766	-58,71	
1557,768	-58,45	
1557,770	-58,77	
1557,772	-58,49	
1557,774	-58,08	
1557,776	-58,33	
1557,778	-58,46	
1557,780	-58,51	
1557,782	-59,01	
1557,784	-58,77	
1557,786	-58,68	
1557,788	-58,72	
1557,790	-58,59	
1557,792	-58,61	
1557,794	-58,42	
1557,796	-58,00	
1557,798	-58,14	
1557,800	-58,53	
1557,802	-58,28	
1557,804	-58,73	
1557,806	-58,64	
1557,808	-58,05	
1557,810	-58,41	
1557,812	-58,70	
1557,814	-58,72	
1557,816	-59,03	
1557,818	-58,58	
1557,820	-58,52	
1557,822	-58,77	
1557,824	-58,34	
1557,826	-58,33	
1557,828	-58,86	
1557,830	-58,59	
1557,832	-58,94	
1557,834	-58,49	
1557,836	-58,37	
1557,838	-58,26	
1557,840	-58,43	
1557,842	-58,42	
1557,844	-58,68	
1557,846	-58,76	
1557,848	-58,83	
1557,850	-59,05	
1557,852	-58,95	
1557,854	-58,51	
1557,856	-58,69	
1557,858	-58,59	
1557,860	-58,60	
1557,862	-58,31	
1557,864	-58,24	
1557,866	-58,35	
1557,868	-58,65	
1557,870	-58,66	
1557,872	-58,78	
1557,874	-58,62	
1557,876	-58,66	
1557,878	-58,69	
1557,880	-58,62	
1557,882	-58,66	
1557,884	-58,30	
1557,886	-58,28	
1557,888	-58,67	
1557,890	-58,28	
1557,892	-58,25	
1557,894	-58,62	
1557,896	-58,64	
1557,898	-58,96	
1557,900	-59,11	
1557,902	-58,76	
1557,904	-58,54	
1557,906	-58,61	
1557,908	-58,87	
1557,910	-58,64	
1557,912	-58,58	
1557,914	-58,48	
1557,916	-58,53	
1557,918	-58,74	
1557,920	-58,59	
1557,922	-58,82	
1557,924	-58,98	
1557,926	-58,39	
1557,928	-58,64	
1557,930	-58,47	
1557,932	-58,79	
1557,934	-59,14	
1557,936	-58,13	
1557,938	-58,84	
1557,940	-58,46	
1557,942	-58,42	
1557,944	-58,91	
1557,946	-58,85	
1557,948	-58,46	
1557,950	-58,81	
1557,952	-59,03	
1557,954	-59,06	
1557,956	-59,04	
1557,958	-59,13	
1557,960	-58,84	
1557,962	-58,34	
1557,964	-58,28	
1557,966	-58,31	
1557,968	-58,59	
1557,970	-58,53	
1557,972	-58,73	
1557,974	-58,47	
1557,976	-58,56	
1557,978	-58,88	
1557,980	-58,59	
1557,982	-58,54	
1557,984	-58,92	
1557,986	-58,49	
1557,988	-58,43	
1557,990	-58,79	
1557,992	-58,87	
1557,994	-58,87	
1557,996	-59,14	
1557,998	-58,71	
1558,000	-58,62	
1558,002	-58,72	
1558,004	-58,76	
1558,006	-58,82	
1558,008	-58,88	
1558,010	-58,88	
1558,012	-58,50	
1558,014	-58,70	
1558,016	-58,36	
1558,018	-58,45	
1558,020	-58,49	
1558,022	-58,49	
1558,024	-58,41	
1558,026	-58,90	
1558,028	-59,05	
1558,030	-58,86	
1558,032	-59,06	
1558,034	-59,03	
1558,036	-58,91	
1558,038	-58,66	
1558,040	-58,54	
1558,042	-58,65	
1558,044	-58,44	
1558,046	-58,48	
1558,048	-58,87	
1558,050	-58,14	
1558,052	-58,57	
1558,054	-58,60	
1558,056	-58,73	
1558,058	-58,73	
1558,060	-58,36	
1558,062	-59,01	
1558,064	-59,13	
1558,066	-58,74	
1558,068	-58,79	
1558,070	-59,30	
1558,072	-59,43	
1558,074	-58,68	
1558,076	-58,78	
1558,078	-58,77	
1558,080	-58,58	
1558,082	-58,81	
1558,084	-59,07	
1558,086	-58,48	
1558,088	-59,02	
1558,090	-58,84	
1558,092	-58,59	
1558,094	-59,23	
1558,096	-58,70	
1558,098	-58,98	
1558,100	-58,76	
1558,102	-58,54	
1558,104	-59,05	
1558,106	-58,99	
1558,108	-58,89	
1558,110	-58,98	
1558,112	-59,11	
1558,114	-59,05	
1558,116	-58,95	
1558,118	-58,65	
1558,120	-58,76	
1558,122	-59,00	
1558,124	-59,23	
1558,126	-59,42	
1558,128	-58,96	
1558,130	-58,89	
1558,132	-59,20	
1558,134	-59,22	
1558,136	-59,32	
1558,138	-58,54	
1558,140	-58,72	
1558,142	-58,73	
1558,144	-59,06	
1558,146	-58,84	
1558,148	-58,72	
1558,150	-58,65	
1558,152	-59,00	
1558,154	-58,91	
1558,156	-58,52	
1558,158	-58,88	
1558,160	-59,37	
1558,162	-59,11	
1558,164	-58,95	
1558,166	-58,88	
1558,168	-58,74	
1558,170	-58,82	
1558,172	-58,84	
1558,174	-59,30	
1558,176	-59,32	
1558,178	-59,00	
1558,180	-59,34	
1558,182	-59,39	
1558,184	-59,12	
1558,186	-59,29	
1558,188	-59,30	
1558,190	-58,91	
1558,192	-58,75	
1558,194	-58,79	
1558,196	-58,94	
1558,198	-58,81	
1558,200	-58,64	
1558,202	-58,67	
1558,204	-58,95	
1558,206	-59,24	
1558,208	-58,92	
1558,210	-59,35	
1558,212	-58,97	
1558,214	-59,36	
1558,216	-58,71	
1558,218	-58,76	
1558,220	-59,13	
1558,222	-59,19	
1558,224	-59,05	
1558,226	-58,70	
1558,228	-58,76	
1558,230	-59,02	
1558,232	-59,19	
1558,234	-59,47	
1558,236	-58,88	
1558,238	-58,89	
1558,240	-58,77	
1558,242	-58,81	
1558,244	-59,16	
1558,246	-58,78	
1558,248	-58,94	
1558,250	-58,92	
1558,252	-58,88	
1558,254	-59,16	
1558,256	-59,31	
1558,258	-59,42	
1558,260	-59,57	
1558,262	-59,22	
1558,264	-59,29	
1558,266	-58,72	
1558,268	-58,46	
1558,270	-58,47	
1558,272	-59,03	
1558,274	-59,11	
1558,276	-59,38	
1558,278	-58,99	
1558,280	-59,11	
1558,282	-58,99	
1558,284	-59,16	
1558,286	-59,30	
1558,288	-59,13	
1558,290	-58,80	
1558,292	-58,63	
1558,294	-59,03	
1558,296	-59,30	
1558,298	-58,82	
1558,300	-58,89	
1558,302	-58,96	
1558,304	-58,76	
1558,306	-58,93	
1558,308	-59,04	
1558,310	-59,14	
1558,312	-59,04	
1558,314	-59,03	
1558,316	-59,10	
1558,318	-58,92	
1558,320	-59,02	
1558,322	-59,39	
1558,324	-59,42	
1558,326	-59,32	
1558,328	-59,25	
1558,330	-58,91	
1558,332	-58,51	
1558,334	-58,67	
1558,336	-59,06	
1558,338	-58,96	
1558,340	-59,36	
1558,342	-58,89	
1558,344	-59,34	
1558,346	-59,26	
1558,348	-59,20	
1558,350	-59,11	
1558,352	-58,96	
1558,354	-58,85	
1558,356	-59,13	
1558,358	-59,15	
1558,360	-59,20	
1558,362	-59,29	
1558,364	-60,09	
1558,366	-59,44	
1558,368	-58,86	
1558,370	-58,86	
1558,372	-58,70	
1558,374	-59,03	
1558,376	-59,02	
1558,378	-58,93	
1558,380	-59,09	
1558,382	-59,25	
1558,384	-59,41	
1558,386	-59,69	
1558,388	-59,98	
1558,390	-59,41	
1558,392	-59,04	
1558,394	-58,71	
1558,396	-58,99	
1558,398	-59,04	
1558,400	-59,10	
1558,402	-59,08	
1558,404	-59,19	
1558,406	-59,19	
1558,408	-59,35	
1558,410	-59,45	
1558,412	-59,07	
1558,414	-58,67	
1558,416	-58,67	
1558,418	-59,44	
1558,420	-59,61	
1558,422	-59,87	
1558,424	-59,70	
1558,426	-59,74	
1558,428	-59,43	
1558,430	-59,48	
1558,432	-59,48	
1558,434	-59,25	
1558,436	-59,09	
1558,438	-58,87	
1558,440	-58,58	
1558,442	-58,81	
1558,444	-59,35	
1558,446	-59,08	
1558,448	-59,26	
1558,450	-58,98	
1558,452	-59,02	
1558,454	-59,07	
1558,456	-59,43	
1558,458	-59,73	
1558,460	-59,48	
1558,462	-59,40	
1558,464	-58,96	
1558,466	-59,26	
1558,468	-58,99	
1558,470	-58,87	
1558,472	-58,93	
1558,474	-58,88	
1558,476	-58,90	
1558,478	-59,00	
1558,480	-59,04	
1558,482	-59,03	
1558,484	-59,21	
1558,486	-59,50	
1558,488	-60,46	
1558,490	-59,57	
1558,492	-58,69	
1558,494	-59,10	
1558,496	-59,07	
1558,498	-59,33	
1558,500	-59,46	
1558,502	-59,35	
1558,504	-59,18	
1558,506	-58,94	
1558,508	-59,23	
1558,510	-59,60	
1558,512	-59,18	
1558,514	-59,49	
1558,516	-59,43	
1558,518	-58,99	
1558,520	-58,64	
1558,522	-58,97	
1558,524	-59,18	
1558,526	-59,13	
1558,528	-58,92	
1558,530	-59,15	
1558,532	-59,93	
1558,534	-59,64	
1558,536	-59,50	
1558,538	-59,11	
1558,540	-58,80	
1558,542	-58,85	
1558,544	-59,23	
1558,546	-58,83	
1558,548	-58,97	
1558,550	-59,26	
1558,552	-59,33	
1558,554	-59,70	
1558,556	-60,04	
1558,558	-59,49	
1558,560	-58,99	
1558,562	-59,11	
1558,564	-58,84	
1558,566	-58,73	
1558,568	-58,82	
1558,570	-58,91	
1558,572	-58,92	
1558,574	-59,17	
1558,576	-59,33	
1558,578	-58,79	
1558,580	-59,16	
1558,582	-58,72	
1558,584	-59,19	
1558,586	-59,08	
1558,588	-58,88	
1558,590	-58,96	
1558,592	-59,37	
1558,594	-59,59	
1558,596	-59,56	
1558,598	-59,40	
1558,600	-59,22	
1558,602	-59,39	
1558,604	-59,01	
1558,606	-59,01	
1558,608	-59,12	
1558,610	-59,40	
1558,612	-58,95	
1558,614	-58,91	
1558,616	-59,16	
1558,618	-58,84	
1558,620	-58,86	
1558,622	-59,05	
1558,624	-59,06	
1558,626	-59,19	
1558,628	-59,24	
1558,630	-59,31	
1558,632	-59,87	
1558,634	-59,17	
1558,636	-58,87	
1558,638	-58,68	
1558,640	-58,96	
1558,642	-59,56	
1558,644	-59,31	
1558,646	-59,31	
1558,648	-58,76	
1558,650	-58,88	
1558,652	-58,90	
1558,654	-58,65	
1558,656	-58,60	
1558,658	-58,93	
1558,660	-58,97	
1558,662	-58,88	
1558,664	-59,51	
1558,666	-60,07	
1558,668	-59,84	
1558,670	-59,11	
1558,672	-59,75	
1558,674	-59,32	
1558,676	-59,25	
1558,678	-59,20	
1558,680	-59,04	
1558,682	-58,99	
1558,684	-59,04	
1558,686	-59,27	
1558,688	-59,14	
1558,690	-59,15	
1558,692	-58,93	
1558,694	-58,98	
1558,696	-59,52	
1558,698	-58,73	
1558,700	-58,79	
1558,702	-59,04	
1558,704	-59,25	
1558,706	-59,16	
1558,708	-58,86	
1558,710	-58,74	
1558,712	-58,98	
1558,714	-59,41	
1558,716	-59,39	
1558,718	-59,00	
1558,720	-59,05	
1558,722	-59,31	
1558,724	-59,51	
1558,726	-59,43	
1558,728	-59,40	
1558,730	-59,88	
1558,732	-59,31	
1558,734	-58,92	
1558,736	-59,17	
1558,738	-58,62	
1558,740	-58,85	
1558,742	-59,01	
1558,744	-59,35	
1558,746	-59,08	
1558,748	-58,97	
1558,750	-59,08	
1558,752	-59,08	
1558,754	-58,78	
1558,756	-58,97	
1558,758	-58,78	
1558,760	-58,87	
1558,762	-58,57	
1558,764	-59,08	
1558,766	-58,89	
1558,768	-59,29	
1558,770	-58,92	
1558,772	-59,41	
1558,774	-59,67	
1558,776	-59,50	
1558,778	-59,05	
1558,780	-58,92	
1558,782	-59,01	
1558,784	-58,74	
1558,786	-58,92	
1558,788	-59,06	
1558,790	-59,01	
1558,792	-58,99	
1558,794	-58,87	
1558,796	-59,05	
1558,798	-59,39	
1558,800	-59,00	
1558,802	-59,06	
1558,804	-59,56	
1558,806	-59,77	
1558,808	-58,92	
1558,810	-58,85	
1558,812	-59,13	
1558,814	-59,15	
1558,816	-58,76	
1558,818	-58,91	
1558,820	-58,66	
1558,822	-58,39	
1558,824	-58,55	
1558,826	-58,94	
1558,828	-59,20	
1558,830	-59,25	
1558,832	-59,69	
1558,834	-59,55	
1558,836	-59,32	
1558,838	-59,24	
1558,840	-58,93	
1558,842	-58,73	
1558,844	-58,54	
1558,846	-58,54	
1558,848	-58,58	
1558,850	-58,73	
1558,852	-59,21	
1558,854	-58,94	
1558,856	-58,99	
1558,858	-58,93	
1558,860	-58,95	
1558,862	-58,92	
1558,864	-58,72	
1558,866	-58,80	
1558,868	-58,64	
1558,870	-58,99	
1558,872	-58,80	
1558,874	-59,00	
1558,876	-59,38	
1558,878	-59,29	
1558,880	-58,78	
1558,882	-58,62	
1558,884	-58,95	
1558,886	-58,98	
1558,888	-58,87	
1558,890	-58,70	
1558,892	-58,74	
1558,894	-58,25	
1558,896	-58,91	
1558,898	-58,60	
1558,900	-59,27	
1558,902	-59,15	
1558,904	-59,09	
1558,906	-58,91	
1558,908	-58,51	
1558,910	-58,52	
1558,912	-58,59	
1558,914	-58,72	
1558,916	-58,74	
1558,918	-58,87	
1558,920	-58,59	
1558,922	-58,67	
1558,924	-59,08	
1558,926	-59,74	
1558,928	-58,78	
1558,930	-58,42	
1558,932	-58,91	
1558,934	-58,56	
1558,936	-58,86	
1558,938	-58,44	
1558,940	-58,80	
1558,942	-59,22	
1558,944	-58,91	
1558,946	-58,87	
1558,948	-58,88	
1558,950	-58,71	
1558,952	-58,40	
1558,954	-58,47	
1558,956	-59,21	
1558,958	-59,29	
1558,960	-59,21	
1558,962	-59,10	
1558,964	-58,28	
1558,966	-58,50	
1558,968	-58,85	
1558,970	-58,60	
1558,972	-58,98	
1558,974	-58,48	
1558,976	-58,47	
1558,978	-58,42	
1558,980	-58,74	
1558,982	-58,67	
1558,984	-58,80	
1558,986	-58,49	
1558,988	-59,07	
1558,990	-58,55	
1558,992	-58,55	
1558,994	-58,81	
1558,996	-58,79	
1558,998	-58,88	
1559,000	-58,73	
1559,002	-58,89	
1559,004	-59,14	
1559,006	-58,90	
1559,008	-58,89	
1559,010	-58,73	
1559,012	-58,22	
1559,014	-58,67	
1559,016	-58,80	
1559,018	-58,51	
1559,020	-58,52	
1559,022	-58,96	
1559,024	-58,58	
1559,026	-58,80	
1559,028	-58,99	
1559,030	-58,89	
1559,032	-58,89	
1559,034	-58,27	
1559,036	-58,33	
1559,038	-58,64	
1559,040	-58,57	
1559,042	-58,60	
1559,044	-59,17	
1559,046	-59,00	
1559,048	-58,50	
1559,050	-57,90	
1559,052	-58,81	
1559,054	-58,84	
1559,056	-58,87	
1559,058	-58,31	
1559,060	-58,80	
1559,062	-58,82	
1559,064	-58,63	
1559,066	-58,54	
1559,068	-58,93	
1559,070	-58,61	
1559,072	-59,06	
1559,074	-58,84	
1559,076	-58,74	
1559,078	-58,64	
1559,080	-58,61	
1559,082	-59,14	
1559,084	-59,23	
1559,086	-58,88	
1559,088	-58,38	
1559,090	-58,56	
1559,092	-58,46	
1559,094	-58,19	
1559,096	-58,39	
1559,098	-58,38	
1559,100	-58,76	
1559,102	-58,80	
1559,104	-58,44	
1559,106	-58,68	
1559,108	-58,59	
1559,110	-58,49	
1559,112	-58,55	
1559,114	-58,66	
1559,116	-58,57	
1559,118	-58,75	
1559,120	-58,70	
1559,122	-58,89	
1559,124	-59,12	
1559,126	-58,54	
1559,128	-58,60	
1559,130	-58,69	
1559,132	-58,82	
1559,134	-58,80	
1559,136	-58,73	
1559,138	-58,82	
1559,140	-58,36	
1559,142	-58,44	
1559,144	-58,35	
1559,146	-58,12	
1559,148	-58,16	
1559,150	-58,53	
1559,152	-58,82	
1559,154	-58,50	
1559,156	-58,77	
1559,158	-58,26	
1559,160	-58,40	
1559,162	-58,58	
1559,164	-58,31	
1559,166	-58,53	
1559,168	-58,80	
1559,170	-58,89	
1559,172	-58,55	
1559,174	-58,31	
1559,176	-58,47	
1559,178	-58,68	
1559,180	-58,70	
1559,182	-58,41	
1559,184	-58,35	
1559,186	-58,39	
1559,188	-58,15	
1559,190	-58,20	
1559,192	-58,25	
1559,194	-58,38	
1559,196	-58,46	
1559,198	-58,14	
1559,200	-58,50	
1559,202	-58,45	
1559,204	-59,31	
1559,206	-58,85	
1559,208	-58,60	
1559,210	-58,90	
1559,212	-58,27	
1559,214	-58,35	
1559,216	-58,59	
1559,218	-58,79	
1559,220	-58,63	
1559,222	-58,74	
1559,224	-58,47	
1559,226	-58,55	
1559,228	-58,80	
1559,230	-58,38	
1559,232	-58,10	
1559,234	-57,87	
1559,236	-58,48	
1559,238	-58,49	
1559,240	-58,18	
1559,242	-58,33	
1559,244	-58,37	
1559,246	-58,64	
1559,248	-58,80	
1559,250	-58,72	
1559,252	-58,59	
1559,254	-58,19	
1559,256	-58,26	
1559,258	-58,44	
1559,260	-58,25	
1559,262	-58,45	
1559,264	-58,38	
1559,266	-58,18	
1559,268	-58,52	
1559,270	-58,25	
1559,272	-59,26	
1559,274	-58,44	
1559,276	-58,54	
1559,278	-58,96	
1559,280	-58,47	
1559,282	-58,50	
1559,284	-58,13	
1559,286	-57,70	
1559,288	-58,15	
1559,290	-58,35	
1559,292	-58,15	
1559,294	-58,30	
1559,296	-58,40	
1559,298	-58,30	
1559,300	-58,27	
1559,302	-58,60	
1559,304	-58,81	
1559,306	-58,79	
1559,308	-57,96	
1559,310	-57,87	
1559,312	-58,32	
1559,314	-58,33	
1559,316	-58,60	
1559,318	-58,65	
1559,320	-58,52	
1559,322	-58,52	
1559,324	-58,36	
1559,326	-58,29	
1559,328	-58,76	
1559,330	-58,72	
1559,332	-58,11	
1559,334	-58,48	
1559,336	-58,68	
1559,338	-58,54	
1559,340	-58,96	
1559,342	-58,02	
1559,344	-58,07	
1559,346	-58,21	
1559,348	-58,10	
1559,350	-58,50	
1559,352	-58,16	
1559,354	-58,28	
1559,356	-58,44	
1559,358	-58,29	
1559,360	-58,17	
1559,362	-58,44	
1559,364	-58,49	
1559,366	-58,22	
1559,368	-58,13	
1559,370	-58,59	
1559,372	-58,16	
1559,374	-58,25	
1559,376	-58,69	
1559,378	-58,65	
1559,380	-58,48	
1559,382	-58,45	
1559,384	-58,24	
1559,386	-58,10	
1559,388	-58,29	
1559,390	-58,24	
1559,392	-57,82	
1559,394	-58,14	
1559,396	-58,40	
1559,398	-58,50	
1559,400	-58,58	
1559,402	-58,80	
1559,404	-58,37	
1559,406	-58,69	
1559,408	-58,60	
1559,410	-58,37	
1559,412	-58,31	
1559,414	-58,23	
1559,416	-58,06	
1559,418	-58,01	
1559,420	-58,06	
1559,422	-58,66	
1559,424	-58,73	
1559,426	-58,57	
1559,428	-58,53	
1559,430	-58,63	
1559,432	-58,22	
1559,434	-58,10	
1559,436	-58,10	
1559,438	-57,99	
1559,440	-58,08	
1559,442	-58,47	
1559,444	-58,23	
1559,446	-58,30	
1559,448	-58,10	
1559,450	-58,35	
1559,452	-58,39	
1559,454	-58,47	
1559,456	-58,42	
1559,458	-58,34	
1559,460	-58,18	
1559,462	-58,10	
1559,464	-58,12	
1559,466	-58,42	
1559,468	-58,30	
1559,470	-58,27	
1559,472	-58,45	
1559,474	-58,53	
1559,476	-58,34	
1559,478	-58,62	
1559,480	-58,29	
1559,482	-58,49	
1559,484	-58,35	
1559,486	-58,27	
1559,488	-58,96	
1559,490	-58,99	
1559,492	-58,37	
1559,494	-58,41	
1559,496	-58,63	
1559,498	-58,78	
1559,500	-58,45	
1559,502	-58,73	
1559,504	-58,58	
1559,506	-58,35	
1559,508	-58,54	
1559,510	-57,83	
1559,512	-57,76	
1559,514	-58,44	
1559,516	-58,45	
1559,518	-58,46	
1559,520	-58,13	
1559,522	-57,99	
1559,524	-58,74	
1559,526	-58,64	
1559,528	-58,29	
1559,530	-58,41	
1559,532	-58,87	
1559,534	-58,58	
1559,536	-58,37	
1559,538	-58,53	
1559,540	-58,30	
1559,542	-58,20	
1559,544	-58,22	
1559,546	-58,45	
1559,548	-58,92	
1559,550	-58,95	
1559,552	-58,66	
1559,554	-58,43	
1559,556	-58,49	
1559,558	-58,31	
1559,560	-58,52	
1559,562	-58,91	
1559,564	-58,60	
1559,566	-58,33	
1559,568	-58,99	
1559,570	-59,20	
1559,572	-58,89	
1559,574	-58,53	
1559,576	-58,19	
1559,578	-58,47	
1559,580	-58,48	
1559,582	-58,46	
1559,584	-58,28	
1559,586	-58,63	
1559,588	-58,60	
1559,590	-58,66	
1559,592	-58,37	
1559,594	-58,80	
1559,596	-58,48	
1559,598	-58,28	
1559,600	-58,40	
1559,602	-58,66	
1559,604	-58,74	
1559,606	-58,43	
1559,608	-58,27	
1559,610	-58,64	
1559,612	-58,31	
1559,614	-58,35	
1559,616	-58,40	
1559,618	-58,90	
1559,620	-58,49	
1559,622	-58,37	
1559,624	-58,36	
1559,626	-58,18	
1559,628	-58,50	
1559,630	-58,69	
1559,632	-58,61	
1559,634	-58,29	
1559,636	-58,37	
1559,638	-58,64	
1559,640	-58,43	
1559,642	-58,79	
1559,644	-58,55	
1559,646	-58,16	
1559,648	-58,34	
1559,650	-58,68	
1559,652	-58,67	
1559,654	-58,72	
1559,656	-58,68	
1559,658	-58,56	
1559,660	-58,71	
1559,662	-59,54	
1559,664	-58,42	
1559,666	-58,28	
1559,668	-58,40	
1559,670	-58,64	
1559,672	-58,87	
1559,674	-58,92	
1559,676	-58,81	
1559,678	-58,71	
1559,680	-59,14	
1559,682	-58,89	
1559,684	-59,10	
1559,686	-58,72	
1559,688	-58,36	
1559,690	-58,36	
1559,692	-58,65	
1559,694	-58,66	
1559,696	-58,52	
1559,698	-58,34	
1559,700	-58,40	
1559,702	-58,46	
1559,704	-58,75	
1559,706	-58,72	
1559,708	-58,44	
1559,710	-58,48	
1559,712	-58,83	
1559,714	-58,22	
1559,716	-58,27	
1559,718	-58,73	
1559,720	-58,55	
1559,722	-58,49	
1559,724	-58,61	
1559,726	-58,36	
1559,728	-58,62	
1559,730	-58,97	
1559,732	-58,35	
1559,734	-58,70	
1559,736	-58,73	
1559,738	-58,37	
1559,740	-58,56	
1559,742	-58,63	
1559,744	-58,74	
1559,746	-59,22	
1559,748	-59,40	
1559,750	-58,87	
1559,752	-58,95	
1559,754	-58,48	
1559,756	-58,57	
1559,758	-58,45	
1559,760	-58,48	
1559,762	-58,38	
1559,764	-58,71	
1559,766	-58,52	
1559,768	-58,20	
1559,770	-58,68	
1559,772	-59,12	
1559,774	-58,98	
1559,776	-59,25	
1559,778	-58,49	
1559,780	-58,47	
1559,782	-58,71	
1559,784	-58,90	
1559,786	-59,15	
1559,788	-58,87	
1559,790	-58,92	
1559,792	-58,62	
1559,794	-58,28	
1559,796	-58,84	
1559,798	-59,34	
1559,800	-58,61	
1559,802	-59,13	
1559,804	-59,45	
1559,806	-59,08	
1559,808	-58,66	
1559,810	-58,69	
1559,812	-58,79	
1559,814	-59,15	
1559,816	-59,09	
1559,818	-59,31	
1559,820	-58,77	
1559,822	-58,98	
1559,824	-58,57	
1559,826	-58,75	
1559,828	-58,80	
1559,830	-58,85	
1559,832	-58,64	
1559,834	-58,82	
1559,836	-59,27	
1559,838	-59,02	
1559,840	-58,64	
1559,842	-58,63	
1559,844	-59,05	
1559,846	-58,80	
1559,848	-58,85	
1559,850	-59,10	
1559,852	-59,19	
1559,854	-59,01	
1559,856	-58,92	
1559,858	-59,35	
1559,860	-59,27	
1559,862	-59,17	
1559,864	-58,87	
1559,866	-58,35	
1559,868	-58,69	
1559,870	-58,78	
1559,872	-58,79	
1559,874	-58,81	
1559,876	-58,78	
1559,878	-58,96	
1559,880	-59,16	
1559,882	-58,92	
1559,884	-58,90	
1559,886	-59,15	
1559,888	-59,13	
1559,890	-59,12	
1559,892	-59,06	
1559,894	-58,67	
1559,896	-58,61	
1559,898	-58,65	
1559,900	-58,61	
1559,902	-58,99	
1559,904	-59,12	
1559,906	-58,76	
1559,908	-59,26	
1559,910	-59,18	
1559,912	-59,14	
1559,914	-58,93	
1559,916	-58,80	
1559,918	-59,05	
1559,920	-58,91	
1559,922	-58,99	
1559,924	-58,97	
1559,926	-58,60	
1559,928	-59,17	
1559,930	-58,73	
1559,932	-58,95	
1559,934	-59,00	
1559,936	-59,34	
1559,938	-59,10	
1559,940	-58,63	
1559,942	-58,88	
1559,944	-59,19	
1559,946	-58,80	
1559,948	-58,81	
1559,950	-59,26	
1559,952	-58,79	
1559,954	-58,67	
1559,956	-58,81	
1559,958	-59,32	
1559,960	-59,16	
1559,962	-59,07	
1559,964	-59,36	
1559,966	-59,42	
1559,968	-59,15	
1559,970	-59,65	
1559,972	-58,84	
1559,974	-59,03	
1559,976	-58,95	
1559,978	-59,10	
1559,980	-59,41	
1559,982	-59,23	
1559,984	-58,79	
1559,986	-59,07	
1559,988	-59,01	
1559,990	-58,78	
1559,992	-59,13	
1559,994	-59,14	
1559,996	-58,84	
1559,998	-59,24	
1560,000	-58,71	


