OSA WDM Report

Results

Trace Identification

File name:  	
Job ID:  	
Cable ID:  	
Fiber ID:  	
Customer:  	
Company:  	
Operator:  	
Maintenance reason:  	
Link ID:  	530
Orientation:  	None
System:  	
Network element:  	None
Test point:  	None
Description:  	
Comments:  	

Acquisition Conditions

Acquisition type:  	Real Time
Number of scans:  	1
Spectral range start:  	1541,000 nm
Spectral range stop:  	1560,000 nm
User calibration:  	Factory
Calibration date:  	2017-12-22
Acquisition start time:  	2025-10-01 15:38:22
Acquisition stop time:  	2025-10-01 15:38:24
Hardware model:  	FTBx-5245-EA
Serial number:  	1085217
RBW value:  	0,041 nm

Global Results

Average signal power:  	1,41 dBm
Signal power flatness:  	42,12 dB
Average OSNR:  	38,97 dB
OSNR flatness:  	36,43 dB
Total power in scan range:  	4,43 dBm
Channel count:  	2
Empty channel count:  	0

Global Test Result

Status:  	Not Active

Channel Results

Ch.#	Name	λ (nm)	Δλ (nm)	λ Peak (nm)	∆λ Peak (nm)	Signal Power (dBm)	OSNR (dB)	NoisedBm	Bandwidth 3,00 dB (nm)	Bandwidth 20,00 dB (nm)	ENBW (nm)	Transmitter Trace	Warning	
1	C_001	1546,925	-0,001	1546,934	0,008	(i) -37,70	5,55	(IEC) -43,26	0,303	---	0,040	---	---	
2	C_002	1549,230	0,000	1549,230	0,000	(i) 4,42	41,98	(IEC) -37,56	0,036	0,104	0,041	---	---	


Analysis Parameters

Default Channel Analysis

Activate default channel:  	ON
Snap to ITU grid:  	OFF
Channel width:  	50,0 GHz
Signal power calculation:  	Integrated signal power
Noise for OSNR:  	Fixed range IEC based
OSNR distance:  	25,0 GHz
Noise region:  	2,5 GHz

Default Channel Thresholds

Signal power min.:  	-45,00 dBm
Signal power max.:  	15,00 dBm
Noise min.:  	-99,99 dBm
Noise max.:  	-40,00 dBm
OSNR min.:  	5,00 dB
OSNR max.:  	60,00 dB
Wavelength max. dev. ±:  	0,020 nm

Global Analysis

Peak detection level:  	-45,00 dBm
RBW for OSNR:  	0,100 nm
Wavelength offset:  	0,000 nm
Power offset:  	0,00 dB
Bandwidth at:  	20,00 dB

Global Thresholds

Average signal power min.:  	-45,00 dBm
Average signal power max.:  	15,00 dBm
Signal power flatness max.:  	1,00 dB
Average OSNR min.:  	5,00 dB
Average OSNR max.:  	60,00 dB
OSNR flatness max.:  	10,00 dB

Channel List

Name	λ (nm)	Channel Width	Signal Power	Noise for OSNR	Transmitter Trace	OSNR Distance	Noise Region	Signal Power Min. (dBm)	Signal Power Max. (dBm)	Noise Min. (dBm)	Noise Max. (dBm)	OSNR Min. (dB)	OSNR Max. (dB)	Wavelength Max. Dev. (nm)	
C_001	1546,926	50,0 GHz	Integrated signal power	Fixed range IEC based	---	25,0 GHz	2,5 GHz	-45,00	15,00	-99,99	-40,00	5,00	60,00	0,020	
C_002	1549,230	50,0 GHz	Integrated signal power	Fixed range IEC based	---	25,0 GHz	2,5 GHz	-45,00	15,00	-99,99	-40,00	5,00	60,00	0,020	

Graph

λ (nm)	Power (dBm)	
1541,000	-52,96	
1541,002	-52,92	
1541,004	-52,92	
1541,006	-52,96	
1541,008	-53,03	
1541,010	-53,06	
1541,012	-53,05	
1541,014	-52,96	
1541,016	-52,92	
1541,018	-52,93	
1541,020	-52,87	
1541,022	-52,89	
1541,024	-52,96	
1541,026	-52,92	
1541,028	-52,99	
1541,030	-52,99	
1541,032	-52,93	
1541,034	-52,87	
1541,036	-52,88	
1541,038	-52,87	
1541,040	-52,92	
1541,042	-53,05	
1541,044	-52,99	
1541,046	-52,97	
1541,048	-52,94	
1541,050	-52,95	
1541,052	-52,86	
1541,054	-52,83	
1541,056	-52,88	
1541,058	-52,94	
1541,060	-52,93	
1541,062	-52,90	
1541,064	-52,94	
1541,066	-52,97	
1541,068	-52,84	
1541,070	-52,87	
1541,072	-52,87	
1541,074	-52,98	
1541,076	-52,74	
1541,078	-52,77	
1541,080	-52,84	
1541,082	-52,75	
1541,084	-52,70	
1541,086	-52,77	
1541,088	-52,83	
1541,090	-52,85	
1541,092	-52,72	
1541,094	-52,81	
1541,096	-52,84	
1541,098	-52,81	
1541,100	-52,76	
1541,102	-52,80	
1541,104	-52,79	
1541,106	-52,70	
1541,108	-52,76	
1541,110	-52,82	
1541,112	-52,75	
1541,114	-52,74	
1541,116	-52,85	
1541,118	-52,88	
1541,120	-52,83	
1541,122	-52,88	
1541,124	-53,11	
1541,126	-52,90	
1541,128	-52,75	
1541,130	-52,77	
1541,132	-52,80	
1541,134	-52,78	
1541,136	-52,74	
1541,138	-52,77	
1541,140	-52,79	
1541,142	-52,75	
1541,144	-52,80	
1541,146	-52,82	
1541,148	-52,84	
1541,150	-52,83	
1541,152	-52,78	
1541,154	-52,70	
1541,156	-52,74	
1541,158	-52,70	
1541,160	-52,75	
1541,162	-52,78	
1541,164	-52,72	
1541,166	-52,73	
1541,168	-52,69	
1541,170	-52,65	
1541,172	-52,66	
1541,174	-52,69	
1541,176	-52,68	
1541,178	-52,68	
1541,180	-52,72	
1541,182	-52,68	
1541,184	-52,56	
1541,186	-52,68	
1541,188	-52,68	
1541,190	-52,76	
1541,192	-52,67	
1541,194	-52,62	
1541,196	-52,52	
1541,198	-52,55	
1541,200	-52,56	
1541,202	-52,59	
1541,204	-52,70	
1541,206	-52,70	
1541,208	-52,71	
1541,210	-52,71	
1541,212	-52,68	
1541,214	-52,63	
1541,216	-52,63	
1541,218	-52,73	
1541,220	-52,63	
1541,222	-52,77	
1541,224	-52,68	
1541,226	-52,58	
1541,228	-52,50	
1541,230	-52,66	
1541,232	-52,67	
1541,234	-52,72	
1541,236	-52,62	
1541,238	-52,60	
1541,240	-52,54	
1541,242	-52,52	
1541,244	-52,52	
1541,246	-52,53	
1541,248	-52,52	
1541,250	-52,55	
1541,252	-52,48	
1541,254	-52,43	
1541,256	-52,49	
1541,258	-52,53	
1541,260	-52,65	
1541,262	-52,51	
1541,264	-52,61	
1541,266	-52,56	
1541,268	-52,64	
1541,270	-52,55	
1541,272	-52,54	
1541,274	-52,57	
1541,276	-52,53	
1541,278	-52,42	
1541,280	-52,42	
1541,282	-52,48	
1541,284	-52,47	
1541,286	-52,55	
1541,288	-52,52	
1541,290	-52,53	
1541,292	-52,43	
1541,294	-52,38	
1541,296	-52,44	
1541,298	-52,46	
1541,300	-52,42	
1541,302	-52,41	
1541,304	-52,47	
1541,306	-52,45	
1541,308	-52,42	
1541,310	-52,45	
1541,312	-52,50	
1541,314	-52,41	
1541,316	-52,45	
1541,318	-52,34	
1541,320	-52,36	
1541,322	-52,37	
1541,324	-52,40	
1541,326	-52,50	
1541,328	-52,42	
1541,330	-52,44	
1541,332	-52,44	
1541,334	-52,35	
1541,336	-52,36	
1541,338	-52,37	
1541,340	-52,32	
1541,342	-52,37	
1541,344	-52,40	
1541,346	-52,31	
1541,348	-52,33	
1541,350	-52,49	
1541,352	-52,30	
1541,354	-52,25	
1541,356	-52,31	
1541,358	-52,32	
1541,360	-52,30	
1541,362	-52,36	
1541,364	-52,44	
1541,366	-52,36	
1541,368	-52,30	
1541,370	-52,32	
1541,372	-52,22	
1541,374	-52,31	
1541,376	-52,26	
1541,378	-52,22	
1541,380	-52,19	
1541,382	-52,23	
1541,384	-52,32	
1541,386	-52,27	
1541,388	-52,22	
1541,390	-52,18	
1541,392	-52,20	
1541,394	-52,22	
1541,396	-52,17	
1541,398	-52,14	
1541,400	-52,27	
1541,402	-52,32	
1541,404	-52,24	
1541,406	-52,33	
1541,408	-52,32	
1541,410	-52,34	
1541,412	-52,31	
1541,414	-52,32	
1541,416	-52,26	
1541,418	-52,25	
1541,420	-52,28	
1541,422	-52,20	
1541,424	-52,15	
1541,426	-52,17	
1541,428	-52,16	
1541,430	-52,17	
1541,432	-52,20	
1541,434	-52,20	
1541,436	-52,21	
1541,438	-52,19	
1541,440	-52,18	
1541,442	-52,15	
1541,444	-52,17	
1541,446	-52,13	
1541,448	-52,13	
1541,450	-52,17	
1541,452	-52,07	
1541,454	-52,10	
1541,456	-52,15	
1541,458	-52,10	
1541,460	-52,15	
1541,462	-52,16	
1541,464	-52,14	
1541,466	-52,14	
1541,468	-52,13	
1541,470	-52,15	
1541,472	-52,16	
1541,474	-52,16	
1541,476	-52,12	
1541,478	-52,19	
1541,480	-52,15	
1541,482	-52,04	
1541,484	-52,04	
1541,486	-52,09	
1541,488	-52,05	
1541,490	-52,08	
1541,492	-52,13	
1541,494	-52,19	
1541,496	-52,03	
1541,498	-52,08	
1541,500	-52,09	
1541,502	-52,06	
1541,504	-52,04	
1541,506	-52,06	
1541,508	-52,07	
1541,510	-52,04	
1541,512	-51,98	
1541,514	-51,98	
1541,516	-52,00	
1541,518	-52,03	
1541,520	-52,05	
1541,522	-52,04	
1541,524	-52,06	
1541,526	-52,05	
1541,528	-51,99	
1541,530	-52,05	
1541,532	-52,00	
1541,534	-51,97	
1541,536	-52,05	
1541,538	-52,00	
1541,540	-51,96	
1541,542	-51,99	
1541,544	-52,00	
1541,546	-51,99	
1541,548	-52,11	
1541,550	-52,06	
1541,552	-51,97	
1541,554	-51,95	
1541,556	-51,86	
1541,558	-52,02	
1541,560	-51,97	
1541,562	-51,87	
1541,564	-51,85	
1541,566	-51,91	
1541,568	-51,91	
1541,570	-51,86	
1541,572	-51,90	
1541,574	-51,94	
1541,576	-51,94	
1541,578	-52,03	
1541,580	-51,87	
1541,582	-51,88	
1541,584	-51,90	
1541,586	-51,87	
1541,588	-51,96	
1541,590	-51,95	
1541,592	-51,91	
1541,594	-51,85	
1541,596	-51,81	
1541,598	-51,92	
1541,600	-51,88	
1541,602	-51,92	
1541,604	-51,94	
1541,606	-51,82	
1541,608	-51,85	
1541,610	-51,82	
1541,612	-51,86	
1541,614	-51,89	
1541,616	-51,88	
1541,618	-51,90	
1541,620	-52,01	
1541,622	-52,01	
1541,624	-51,90	
1541,626	-51,82	
1541,628	-51,91	
1541,630	-51,86	
1541,632	-51,98	
1541,634	-51,92	
1541,636	-51,88	
1541,638	-51,85	
1541,640	-51,84	
1541,642	-51,84	
1541,644	-51,80	
1541,646	-51,83	
1541,648	-51,77	
1541,650	-51,87	
1541,652	-51,94	
1541,654	-51,84	
1541,656	-51,79	
1541,658	-51,81	
1541,660	-51,87	
1541,662	-51,86	
1541,664	-51,82	
1541,666	-51,80	
1541,668	-51,82	
1541,670	-51,79	
1541,672	-51,84	
1541,674	-51,83	
1541,676	-51,88	
1541,678	-51,92	
1541,680	-51,90	
1541,682	-51,88	
1541,684	-51,90	
1541,686	-51,86	
1541,688	-51,79	
1541,690	-51,72	
1541,692	-51,66	
1541,694	-51,84	
1541,696	-51,84	
1541,698	-51,78	
1541,700	-51,86	
1541,702	-51,85	
1541,704	-51,83	
1541,706	-51,85	
1541,708	-51,91	
1541,710	-51,87	
1541,712	-51,83	
1541,714	-51,80	
1541,716	-51,76	
1541,718	-51,92	
1541,720	-51,85	
1541,722	-51,83	
1541,724	-51,87	
1541,726	-51,91	
1541,728	-51,90	
1541,730	-51,86	
1541,732	-51,81	
1541,734	-51,87	
1541,736	-51,82	
1541,738	-51,88	
1541,740	-51,91	
1541,742	-51,80	
1541,744	-51,79	
1541,746	-51,82	
1541,748	-51,78	
1541,750	-51,84	
1541,752	-51,91	
1541,754	-51,89	
1541,756	-51,88	
1541,758	-51,87	
1541,760	-51,81	
1541,762	-51,80	
1541,764	-51,84	
1541,766	-51,86	
1541,768	-51,84	
1541,770	-51,84	
1541,772	-51,84	
1541,774	-51,92	
1541,776	-51,86	
1541,778	-51,80	
1541,780	-51,86	
1541,782	-51,79	
1541,784	-51,84	
1541,786	-51,85	
1541,788	-51,83	
1541,790	-51,84	
1541,792	-51,88	
1541,794	-51,89	
1541,796	-51,80	
1541,798	-51,96	
1541,800	-51,82	
1541,802	-51,89	
1541,804	-51,92	
1541,806	-51,90	
1541,808	-51,87	
1541,810	-51,89	
1541,812	-51,85	
1541,814	-51,84	
1541,816	-51,79	
1541,818	-51,71	
1541,820	-51,82	
1541,822	-51,83	
1541,824	-51,86	
1541,826	-51,91	
1541,828	-51,86	
1541,830	-51,89	
1541,832	-51,90	
1541,834	-51,89	
1541,836	-51,82	
1541,838	-51,81	
1541,840	-51,83	
1541,842	-51,86	
1541,844	-51,96	
1541,846	-51,93	
1541,848	-52,04	
1541,850	-51,91	
1541,852	-51,91	
1541,854	-51,92	
1541,856	-51,91	
1541,858	-51,89	
1541,860	-51,86	
1541,862	-51,86	
1541,864	-51,87	
1541,866	-51,94	
1541,868	-51,96	
1541,870	-51,92	
1541,872	-51,96	
1541,874	-51,97	
1541,876	-51,93	
1541,878	-51,93	
1541,880	-51,93	
1541,882	-51,93	
1541,884	-51,91	
1541,886	-51,91	
1541,888	-51,94	
1541,890	-51,91	
1541,892	-51,92	
1541,894	-51,92	
1541,896	-51,92	
1541,898	-51,88	
1541,900	-51,84	
1541,902	-51,92	
1541,904	-51,87	
1541,906	-51,88	
1541,908	-51,88	
1541,910	-51,95	
1541,912	-51,87	
1541,914	-51,86	
1541,916	-51,94	
1541,918	-51,98	
1541,920	-51,95	
1541,922	-51,88	
1541,924	-51,90	
1541,926	-51,89	
1541,928	-51,90	
1541,930	-51,88	
1541,932	-51,86	
1541,934	-51,86	
1541,936	-51,89	
1541,938	-51,96	
1541,940	-52,01	
1541,942	-51,91	
1541,944	-51,99	
1541,946	-51,92	
1541,948	-52,00	
1541,950	-51,95	
1541,952	-51,94	
1541,954	-51,98	
1541,956	-51,94	
1541,958	-51,95	
1541,960	-51,92	
1541,962	-52,05	
1541,964	-51,96	
1541,966	-51,94	
1541,968	-51,99	
1541,970	-51,98	
1541,972	-52,01	
1541,974	-52,07	
1541,976	-52,06	
1541,978	-52,04	
1541,980	-51,98	
1541,982	-52,05	
1541,984	-52,09	
1541,986	-52,03	
1541,988	-52,04	
1541,990	-52,03	
1541,992	-51,95	
1541,994	-51,95	
1541,996	-52,03	
1541,998	-52,02	
1542,000	-52,04	
1542,002	-52,10	
1542,004	-52,08	
1542,006	-52,15	
1542,008	-52,18	
1542,010	-52,23	
1542,012	-52,22	
1542,014	-52,17	
1542,016	-52,20	
1542,018	-52,18	
1542,020	-52,11	
1542,022	-52,20	
1542,024	-52,23	
1542,026	-52,19	
1542,028	-52,12	
1542,030	-52,10	
1542,032	-52,12	
1542,034	-52,13	
1542,036	-52,18	
1542,038	-52,10	
1542,040	-52,12	
1542,042	-52,25	
1542,044	-52,22	
1542,046	-52,16	
1542,048	-52,14	
1542,050	-52,14	
1542,052	-52,11	
1542,054	-52,12	
1542,056	-52,21	
1542,058	-52,19	
1542,060	-52,18	
1542,062	-52,16	
1542,064	-52,25	
1542,066	-52,29	
1542,068	-52,22	
1542,070	-52,17	
1542,072	-52,29	
1542,074	-52,33	
1542,076	-52,18	
1542,078	-52,35	
1542,080	-52,28	
1542,082	-52,23	
1542,084	-52,28	
1542,086	-52,32	
1542,088	-52,25	
1542,090	-52,17	
1542,092	-52,28	
1542,094	-52,28	
1542,096	-52,16	
1542,098	-52,22	
1542,100	-52,25	
1542,102	-52,29	
1542,104	-52,30	
1542,106	-52,28	
1542,108	-52,31	
1542,110	-52,34	
1542,112	-52,22	
1542,114	-52,28	
1542,116	-52,29	
1542,118	-52,27	
1542,120	-52,27	
1542,122	-52,32	
1542,124	-52,29	
1542,126	-52,26	
1542,128	-52,30	
1542,130	-52,29	
1542,132	-52,25	
1542,134	-52,40	
1542,136	-52,48	
1542,138	-52,41	
1542,140	-52,30	
1542,142	-52,34	
1542,144	-52,34	
1542,146	-52,27	
1542,148	-52,25	
1542,150	-52,27	
1542,152	-52,34	
1542,154	-52,39	
1542,156	-52,41	
1542,158	-52,57	
1542,160	-52,48	
1542,162	-52,40	
1542,164	-52,40	
1542,166	-52,43	
1542,168	-52,40	
1542,170	-52,40	
1542,172	-52,40	
1542,174	-52,35	
1542,176	-52,38	
1542,178	-52,51	
1542,180	-52,38	
1542,182	-52,50	
1542,184	-52,53	
1542,186	-52,58	
1542,188	-52,50	
1542,190	-52,50	
1542,192	-52,51	
1542,194	-52,48	
1542,196	-52,48	
1542,198	-52,52	
1542,200	-52,47	
1542,202	-52,42	
1542,204	-52,56	
1542,206	-52,50	
1542,208	-52,48	
1542,210	-52,42	
1542,212	-52,45	
1542,214	-52,49	
1542,216	-52,49	
1542,218	-52,55	
1542,220	-52,52	
1542,222	-52,48	
1542,224	-52,50	
1542,226	-52,44	
1542,228	-52,49	
1542,230	-52,55	
1542,232	-52,54	
1542,234	-52,54	
1542,236	-52,57	
1542,238	-52,54	
1542,240	-52,55	
1542,242	-52,62	
1542,244	-52,58	
1542,246	-52,53	
1542,248	-52,51	
1542,250	-52,51	
1542,252	-52,47	
1542,254	-52,45	
1542,256	-52,48	
1542,258	-52,42	
1542,260	-52,50	
1542,262	-52,69	
1542,264	-52,68	
1542,266	-52,67	
1542,268	-52,70	
1542,270	-52,71	
1542,272	-52,68	
1542,274	-52,59	
1542,276	-52,54	
1542,278	-52,62	
1542,280	-52,69	
1542,282	-52,64	
1542,284	-52,56	
1542,286	-52,50	
1542,288	-52,57	
1542,290	-52,62	
1542,292	-52,64	
1542,294	-52,69	
1542,296	-52,66	
1542,298	-52,64	
1542,300	-52,63	
1542,302	-52,69	
1542,304	-52,52	
1542,306	-52,60	
1542,308	-52,56	
1542,310	-52,65	
1542,312	-52,65	
1542,314	-52,62	
1542,316	-52,59	
1542,318	-52,60	
1542,320	-52,67	
1542,322	-52,65	
1542,324	-52,56	
1542,326	-52,53	
1542,328	-52,58	
1542,330	-52,52	
1542,332	-52,61	
1542,334	-52,55	
1542,336	-52,76	
1542,338	-52,75	
1542,340	-52,74	
1542,342	-52,65	
1542,344	-52,75	
1542,346	-52,84	
1542,348	-52,68	
1542,350	-52,66	
1542,352	-52,70	
1542,354	-52,66	
1542,356	-52,78	
1542,358	-52,71	
1542,360	-52,60	
1542,362	-52,64	
1542,364	-52,58	
1542,366	-52,52	
1542,368	-52,67	
1542,370	-52,71	
1542,372	-52,67	
1542,374	-52,77	
1542,376	-52,76	
1542,378	-52,67	
1542,380	-52,66	
1542,382	-52,63	
1542,384	-52,69	
1542,386	-52,77	
1542,388	-52,84	
1542,390	-52,88	
1542,392	-52,81	
1542,394	-52,80	
1542,396	-52,70	
1542,398	-52,60	
1542,400	-52,61	
1542,402	-52,65	
1542,404	-52,63	
1542,406	-52,64	
1542,408	-52,69	
1542,410	-52,70	
1542,412	-52,74	
1542,414	-52,80	
1542,416	-52,83	
1542,418	-52,75	
1542,420	-52,71	
1542,422	-52,84	
1542,424	-52,83	
1542,426	-52,69	
1542,428	-52,83	
1542,430	-52,73	
1542,432	-52,64	
1542,434	-52,72	
1542,436	-52,60	
1542,438	-52,63	
1542,440	-52,71	
1542,442	-52,77	
1542,444	-52,81	
1542,446	-52,74	
1542,448	-52,76	
1542,450	-52,82	
1542,452	-52,79	
1542,454	-52,71	
1542,456	-52,74	
1542,458	-52,80	
1542,460	-52,87	
1542,462	-52,80	
1542,464	-52,66	
1542,466	-52,71	
1542,468	-52,67	
1542,470	-52,69	
1542,472	-52,65	
1542,474	-52,72	
1542,476	-52,75	
1542,478	-52,71	
1542,480	-52,75	
1542,482	-52,81	
1542,484	-52,79	
1542,486	-52,64	
1542,488	-52,61	
1542,490	-52,63	
1542,492	-52,65	
1542,494	-52,57	
1542,496	-52,88	
1542,498	-52,72	
1542,500	-52,78	
1542,502	-52,90	
1542,504	-52,79	
1542,506	-52,89	
1542,508	-52,79	
1542,510	-52,79	
1542,512	-52,81	
1542,514	-52,71	
1542,516	-52,67	
1542,518	-52,70	
1542,520	-52,66	
1542,522	-52,74	
1542,524	-52,86	
1542,526	-52,80	
1542,528	-52,74	
1542,530	-52,80	
1542,532	-52,86	
1542,534	-52,74	
1542,536	-52,72	
1542,538	-52,76	
1542,540	-52,76	
1542,542	-52,70	
1542,544	-52,80	
1542,546	-52,76	
1542,548	-52,80	
1542,550	-52,80	
1542,552	-52,80	
1542,554	-52,88	
1542,556	-52,84	
1542,558	-52,74	
1542,560	-52,76	
1542,562	-52,71	
1542,564	-52,65	
1542,566	-52,72	
1542,568	-52,70	
1542,570	-52,72	
1542,572	-52,70	
1542,574	-52,69	
1542,576	-52,66	
1542,578	-52,73	
1542,580	-52,75	
1542,582	-52,70	
1542,584	-52,73	
1542,586	-52,81	
1542,588	-52,80	
1542,590	-52,83	
1542,592	-52,77	
1542,594	-52,77	
1542,596	-52,71	
1542,598	-52,61	
1542,600	-52,59	
1542,602	-52,65	
1542,604	-52,66	
1542,606	-52,71	
1542,608	-52,72	
1542,610	-52,70	
1542,612	-52,57	
1542,614	-52,61	
1542,616	-52,56	
1542,618	-52,66	
1542,620	-52,55	
1542,622	-52,66	
1542,624	-52,65	
1542,626	-52,66	
1542,628	-52,81	
1542,630	-52,71	
1542,632	-52,75	
1542,634	-52,74	
1542,636	-52,71	
1542,638	-52,71	
1542,640	-52,69	
1542,642	-52,67	
1542,644	-52,68	
1542,646	-52,69	
1542,648	-52,63	
1542,650	-52,64	
1542,652	-52,73	
1542,654	-52,67	
1542,656	-52,74	
1542,658	-52,49	
1542,660	-52,57	
1542,662	-52,52	
1542,664	-52,55	
1542,666	-52,59	
1542,668	-52,56	
1542,670	-52,59	
1542,672	-52,61	
1542,674	-52,62	
1542,676	-52,60	
1542,678	-52,59	
1542,680	-52,61	
1542,682	-52,62	
1542,684	-52,60	
1542,686	-52,63	
1542,688	-52,49	
1542,690	-52,57	
1542,692	-52,60	
1542,694	-52,52	
1542,696	-52,45	
1542,698	-52,41	
1542,700	-52,59	
1542,702	-52,48	
1542,704	-52,56	
1542,706	-52,65	
1542,708	-52,57	
1542,710	-52,51	
1542,712	-52,57	
1542,714	-52,57	
1542,716	-52,50	
1542,718	-52,53	
1542,720	-52,53	
1542,722	-52,48	
1542,724	-52,56	
1542,726	-52,50	
1542,728	-52,48	
1542,730	-52,43	
1542,732	-52,50	
1542,734	-52,54	
1542,736	-52,42	
1542,738	-52,48	
1542,740	-52,59	
1542,742	-52,60	
1542,744	-52,50	
1542,746	-52,57	
1542,748	-52,51	
1542,750	-52,42	
1542,752	-52,45	
1542,754	-52,44	
1542,756	-52,36	
1542,758	-52,40	
1542,760	-52,47	
1542,762	-52,47	
1542,764	-52,40	
1542,766	-52,39	
1542,768	-52,32	
1542,770	-52,43	
1542,772	-52,41	
1542,774	-52,41	
1542,776	-52,42	
1542,778	-52,39	
1542,780	-52,41	
1542,782	-52,46	
1542,784	-52,41	
1542,786	-52,38	
1542,788	-52,42	
1542,790	-52,35	
1542,792	-52,36	
1542,794	-52,27	
1542,796	-52,42	
1542,798	-52,42	
1542,800	-52,35	
1542,802	-52,37	
1542,804	-52,37	
1542,806	-52,29	
1542,808	-52,30	
1542,810	-52,32	
1542,812	-52,28	
1542,814	-52,26	
1542,816	-52,35	
1542,818	-52,33	
1542,820	-52,15	
1542,822	-52,24	
1542,824	-52,29	
1542,826	-52,21	
1542,828	-52,26	
1542,830	-52,23	
1542,832	-52,25	
1542,834	-52,21	
1542,836	-52,17	
1542,838	-52,25	
1542,840	-52,34	
1542,842	-52,21	
1542,844	-52,17	
1542,846	-52,17	
1542,848	-52,30	
1542,850	-52,18	
1542,852	-52,18	
1542,854	-52,14	
1542,856	-52,15	
1542,858	-52,14	
1542,860	-52,15	
1542,862	-52,14	
1542,864	-52,12	
1542,866	-52,18	
1542,868	-52,12	
1542,870	-52,18	
1542,872	-52,11	
1542,874	-52,23	
1542,876	-52,14	
1542,878	-52,09	
1542,880	-52,08	
1542,882	-52,08	
1542,884	-52,06	
1542,886	-52,02	
1542,888	-52,13	
1542,890	-52,07	
1542,892	-52,17	
1542,894	-52,07	
1542,896	-52,04	
1542,898	-51,93	
1542,900	-52,02	
1542,902	-52,04	
1542,904	-52,00	
1542,906	-51,93	
1542,908	-51,94	
1542,910	-52,01	
1542,912	-51,97	
1542,914	-51,90	
1542,916	-51,89	
1542,918	-51,82	
1542,920	-51,79	
1542,922	-51,92	
1542,924	-51,95	
1542,926	-51,90	
1542,928	-51,93	
1542,930	-51,95	
1542,932	-51,91	
1542,934	-51,92	
1542,936	-51,87	
1542,938	-51,80	
1542,940	-51,84	
1542,942	-51,85	
1542,944	-51,87	
1542,946	-51,85	
1542,948	-51,82	
1542,950	-51,85	
1542,952	-51,86	
1542,954	-51,80	
1542,956	-51,78	
1542,958	-51,75	
1542,960	-51,71	
1542,962	-51,69	
1542,964	-51,66	
1542,966	-51,73	
1542,968	-51,81	
1542,970	-51,85	
1542,972	-51,81	
1542,974	-51,76	
1542,976	-51,75	
1542,978	-51,70	
1542,980	-51,69	
1542,982	-51,71	
1542,984	-51,70	
1542,986	-51,75	
1542,988	-51,75	
1542,990	-51,80	
1542,992	-51,74	
1542,994	-51,64	
1542,996	-51,61	
1542,998	-51,63	
1543,000	-51,61	
1543,002	-51,60	
1543,004	-51,66	
1543,006	-51,61	
1543,008	-51,54	
1543,010	-51,56	
1543,012	-51,57	
1543,014	-51,55	
1543,016	-51,49	
1543,018	-51,47	
1543,020	-51,51	
1543,022	-51,51	
1543,024	-51,51	
1543,026	-51,51	
1543,028	-51,51	
1543,030	-51,49	
1543,032	-51,49	
1543,034	-51,50	
1543,036	-51,48	
1543,038	-51,45	
1543,040	-51,47	
1543,042	-51,44	
1543,044	-51,42	
1543,046	-51,47	
1543,048	-51,46	
1543,050	-51,42	
1543,052	-51,41	
1543,054	-51,41	
1543,056	-51,40	
1543,058	-51,38	
1543,060	-51,38	
1543,062	-51,40	
1543,064	-51,39	
1543,066	-51,37	
1543,068	-51,41	
1543,070	-51,35	
1543,072	-51,33	
1543,074	-51,36	
1543,076	-51,28	
1543,078	-51,27	
1543,080	-51,38	
1543,082	-51,36	
1543,084	-51,32	
1543,086	-51,29	
1543,088	-51,25	
1543,090	-51,24	
1543,092	-51,21	
1543,094	-51,17	
1543,096	-51,24	
1543,098	-51,21	
1543,100	-51,15	
1543,102	-51,13	
1543,104	-51,23	
1543,106	-51,26	
1543,108	-51,19	
1543,110	-51,17	
1543,112	-51,20	
1543,114	-51,17	
1543,116	-51,14	
1543,118	-51,13	
1543,120	-51,12	
1543,122	-51,12	
1543,124	-51,07	
1543,126	-51,05	
1543,128	-51,04	
1543,130	-51,01	
1543,132	-51,03	
1543,134	-51,10	
1543,136	-50,98	
1543,138	-51,12	
1543,140	-51,15	
1543,142	-51,07	
1543,144	-50,99	
1543,146	-50,98	
1543,148	-50,98	
1543,150	-50,99	
1543,152	-50,99	
1543,154	-50,98	
1543,156	-50,88	
1543,158	-51,00	
1543,160	-50,94	
1543,162	-50,91	
1543,164	-50,92	
1543,166	-50,87	
1543,168	-50,89	
1543,170	-50,89	
1543,172	-50,81	
1543,174	-50,87	
1543,176	-50,89	
1543,178	-50,85	
1543,180	-50,85	
1543,182	-50,85	
1543,184	-50,75	
1543,186	-50,79	
1543,188	-50,80	
1543,190	-50,76	
1543,192	-50,80	
1543,194	-50,84	
1543,196	-50,77	
1543,198	-50,80	
1543,200	-50,68	
1543,202	-50,73	
1543,204	-50,76	
1543,206	-50,76	
1543,208	-50,75	
1543,210	-50,81	
1543,212	-50,82	
1543,214	-50,76	
1543,216	-50,74	
1543,218	-50,69	
1543,220	-50,73	
1543,222	-50,72	
1543,224	-50,75	
1543,226	-50,76	
1543,228	-50,73	
1543,230	-50,73	
1543,232	-50,72	
1543,234	-50,68	
1543,236	-50,68	
1543,238	-50,71	
1543,240	-50,68	
1543,242	-50,73	
1543,244	-50,70	
1543,246	-50,62	
1543,248	-50,69	
1543,250	-50,68	
1543,252	-50,64	
1543,254	-50,65	
1543,256	-50,68	
1543,258	-50,71	
1543,260	-50,71	
1543,262	-50,55	
1543,264	-50,58	
1543,266	-50,56	
1543,268	-50,56	
1543,270	-50,58	
1543,272	-50,58	
1543,274	-50,59	
1543,276	-50,54	
1543,278	-50,57	
1543,280	-50,62	
1543,282	-50,57	
1543,284	-50,51	
1543,286	-50,54	
1543,288	-50,54	
1543,290	-50,54	
1543,292	-50,48	
1543,294	-50,46	
1543,296	-50,46	
1543,298	-50,49	
1543,300	-50,50	
1543,302	-50,49	
1543,304	-50,51	
1543,306	-50,51	
1543,308	-50,48	
1543,310	-50,44	
1543,312	-50,52	
1543,314	-50,54	
1543,316	-50,45	
1543,318	-50,44	
1543,320	-50,46	
1543,322	-50,42	
1543,324	-50,47	
1543,326	-50,46	
1543,328	-50,39	
1543,330	-50,40	
1543,332	-50,46	
1543,334	-50,37	
1543,336	-50,36	
1543,338	-50,45	
1543,340	-50,40	
1543,342	-50,39	
1543,344	-50,43	
1543,346	-50,41	
1543,348	-50,41	
1543,350	-50,40	
1543,352	-50,32	
1543,354	-50,31	
1543,356	-50,39	
1543,358	-50,40	
1543,360	-50,43	
1543,362	-50,46	
1543,364	-50,43	
1543,366	-50,42	
1543,368	-50,40	
1543,370	-50,40	
1543,372	-50,40	
1543,374	-50,36	
1543,376	-50,30	
1543,378	-50,33	
1543,380	-50,31	
1543,382	-50,41	
1543,384	-50,37	
1543,386	-50,40	
1543,388	-50,28	
1543,390	-50,27	
1543,392	-50,34	
1543,394	-50,37	
1543,396	-50,36	
1543,398	-50,32	
1543,400	-50,28	
1543,402	-50,26	
1543,404	-50,26	
1543,406	-50,29	
1543,408	-50,30	
1543,410	-50,24	
1543,412	-50,24	
1543,414	-50,26	
1543,416	-50,28	
1543,418	-50,26	
1543,420	-50,28	
1543,422	-50,27	
1543,424	-50,28	
1543,426	-50,33	
1543,428	-50,33	
1543,430	-50,30	
1543,432	-50,29	
1543,434	-50,32	
1543,436	-50,37	
1543,438	-50,33	
1543,440	-50,29	
1543,442	-50,23	
1543,444	-50,28	
1543,446	-50,34	
1543,448	-50,31	
1543,450	-50,37	
1543,452	-50,32	
1543,454	-50,34	
1543,456	-50,35	
1543,458	-50,29	
1543,460	-50,25	
1543,462	-50,28	
1543,464	-50,32	
1543,466	-50,36	
1543,468	-50,39	
1543,470	-50,38	
1543,472	-50,39	
1543,474	-50,31	
1543,476	-50,31	
1543,478	-50,39	
1543,480	-50,39	
1543,482	-50,36	
1543,484	-50,30	
1543,486	-50,33	
1543,488	-50,35	
1543,490	-50,38	
1543,492	-50,42	
1543,494	-50,45	
1543,496	-50,43	
1543,498	-50,38	
1543,500	-50,38	
1543,502	-50,35	
1543,504	-50,32	
1543,506	-50,37	
1543,508	-50,37	
1543,510	-50,45	
1543,512	-50,47	
1543,514	-50,45	
1543,516	-50,44	
1543,518	-50,44	
1543,520	-50,40	
1543,522	-50,42	
1543,524	-50,47	
1543,526	-50,46	
1543,528	-50,43	
1543,530	-50,44	
1543,532	-50,47	
1543,534	-50,49	
1543,536	-50,51	
1543,538	-50,47	
1543,540	-50,58	
1543,542	-50,45	
1543,544	-50,47	
1543,546	-50,50	
1543,548	-50,52	
1543,550	-50,57	
1543,552	-50,50	
1543,554	-50,45	
1543,556	-50,50	
1543,558	-50,51	
1543,560	-50,45	
1543,562	-50,44	
1543,564	-50,47	
1543,566	-50,45	
1543,568	-50,50	
1543,570	-50,52	
1543,572	-50,53	
1543,574	-50,50	
1543,576	-50,48	
1543,578	-50,50	
1543,580	-50,55	
1543,582	-50,53	
1543,584	-50,50	
1543,586	-50,55	
1543,588	-50,61	
1543,590	-50,62	
1543,592	-50,57	
1543,594	-50,61	
1543,596	-50,64	
1543,598	-50,64	
1543,600	-50,70	
1543,602	-50,71	
1543,604	-50,68	
1543,606	-50,67	
1543,608	-50,71	
1543,610	-50,71	
1543,612	-50,67	
1543,614	-50,68	
1543,616	-50,68	
1543,618	-50,73	
1543,620	-50,73	
1543,622	-50,70	
1543,624	-50,72	
1543,626	-50,72	
1543,628	-50,71	
1543,630	-50,73	
1543,632	-50,75	
1543,634	-50,74	
1543,636	-50,76	
1543,638	-50,82	
1543,640	-50,77	
1543,642	-50,74	
1543,644	-50,82	
1543,646	-50,83	
1543,648	-50,85	
1543,650	-50,85	
1543,652	-50,80	
1543,654	-50,80	
1543,656	-50,81	
1543,658	-50,79	
1543,660	-50,81	
1543,662	-50,85	
1543,664	-50,86	
1543,666	-50,85	
1543,668	-50,79	
1543,670	-50,88	
1543,672	-50,92	
1543,674	-50,93	
1543,676	-51,03	
1543,678	-50,98	
1543,680	-50,94	
1543,682	-50,92	
1543,684	-50,88	
1543,686	-50,89	
1543,688	-50,97	
1543,690	-51,00	
1543,692	-50,98	
1543,694	-50,95	
1543,696	-51,05	
1543,698	-50,98	
1543,700	-50,98	
1543,702	-51,03	
1543,704	-51,03	
1543,706	-51,01	
1543,708	-51,04	
1543,710	-51,02	
1543,712	-51,05	
1543,714	-51,01	
1543,716	-50,95	
1543,718	-51,00	
1543,720	-51,06	
1543,722	-51,05	
1543,724	-51,06	
1543,726	-51,16	
1543,728	-51,19	
1543,730	-51,24	
1543,732	-51,20	
1543,734	-51,18	
1543,736	-51,20	
1543,738	-51,16	
1543,740	-51,15	
1543,742	-51,18	
1543,744	-51,17	
1543,746	-51,17	
1543,748	-51,17	
1543,750	-51,21	
1543,752	-51,12	
1543,754	-51,23	
1543,756	-51,35	
1543,758	-51,31	
1543,760	-51,34	
1543,762	-51,28	
1543,764	-51,22	
1543,766	-51,20	
1543,768	-51,24	
1543,770	-51,29	
1543,772	-51,36	
1543,774	-51,39	
1543,776	-51,34	
1543,778	-51,37	
1543,780	-51,30	
1543,782	-51,30	
1543,784	-51,37	
1543,786	-51,36	
1543,788	-51,38	
1543,790	-51,41	
1543,792	-51,39	
1543,794	-51,42	
1543,796	-51,47	
1543,798	-51,50	
1543,800	-51,48	
1543,802	-51,49	
1543,804	-51,50	
1543,806	-51,48	
1543,808	-51,57	
1543,810	-51,52	
1543,812	-51,54	
1543,814	-51,61	
1543,816	-51,53	
1543,818	-51,48	
1543,820	-51,68	
1543,822	-51,59	
1543,824	-51,56	
1543,826	-51,64	
1543,828	-51,59	
1543,830	-51,53	
1543,832	-51,55	
1543,834	-51,63	
1543,836	-51,64	
1543,838	-51,64	
1543,840	-51,67	
1543,842	-51,71	
1543,844	-51,65	
1543,846	-51,67	
1543,848	-51,69	
1543,850	-51,63	
1543,852	-51,71	
1543,854	-51,77	
1543,856	-51,77	
1543,858	-51,80	
1543,860	-51,80	
1543,862	-51,81	
1543,864	-51,84	
1543,866	-51,79	
1543,868	-51,81	
1543,870	-51,84	
1543,872	-51,80	
1543,874	-51,73	
1543,876	-51,81	
1543,878	-51,85	
1543,880	-51,87	
1543,882	-51,87	
1543,884	-51,80	
1543,886	-51,83	
1543,888	-51,83	
1543,890	-51,89	
1543,892	-51,86	
1543,894	-52,00	
1543,896	-51,97	
1543,898	-52,05	
1543,900	-52,00	
1543,902	-51,99	
1543,904	-52,06	
1543,906	-52,01	
1543,908	-51,95	
1543,910	-51,99	
1543,912	-51,98	
1543,914	-52,06	
1543,916	-51,97	
1543,918	-51,99	
1543,920	-52,01	
1543,922	-52,04	
1543,924	-52,05	
1543,926	-52,00	
1543,928	-51,95	
1543,930	-51,98	
1543,932	-52,10	
1543,934	-52,18	
1543,936	-52,29	
1543,938	-52,18	
1543,940	-52,17	
1543,942	-52,13	
1543,944	-52,04	
1543,946	-52,02	
1543,948	-52,07	
1543,950	-52,11	
1543,952	-52,07	
1543,954	-52,17	
1543,956	-52,20	
1543,958	-52,26	
1543,960	-52,28	
1543,962	-52,24	
1543,964	-52,25	
1543,966	-52,28	
1543,968	-52,24	
1543,970	-52,19	
1543,972	-52,24	
1543,974	-52,33	
1543,976	-52,33	
1543,978	-52,26	
1543,980	-52,30	
1543,982	-52,35	
1543,984	-52,30	
1543,986	-52,29	
1543,988	-52,32	
1543,990	-52,33	
1543,992	-52,40	
1543,994	-52,43	
1543,996	-52,44	
1543,998	-52,36	
1544,000	-52,34	
1544,002	-52,34	
1544,004	-52,35	
1544,006	-52,39	
1544,008	-52,38	
1544,010	-52,33	
1544,012	-52,40	
1544,014	-52,32	
1544,016	-52,36	
1544,018	-52,33	
1544,020	-52,34	
1544,022	-52,38	
1544,024	-52,42	
1544,026	-52,46	
1544,028	-52,31	
1544,030	-52,41	
1544,032	-52,44	
1544,034	-52,36	
1544,036	-52,34	
1544,038	-52,39	
1544,040	-52,44	
1544,042	-52,45	
1544,044	-52,46	
1544,046	-52,43	
1544,048	-52,39	
1544,050	-52,45	
1544,052	-52,52	
1544,054	-52,50	
1544,056	-52,48	
1544,058	-52,47	
1544,060	-52,45	
1544,062	-52,47	
1544,064	-52,36	
1544,066	-52,56	
1544,068	-52,64	
1544,070	-52,57	
1544,072	-52,47	
1544,074	-52,43	
1544,076	-52,47	
1544,078	-52,55	
1544,080	-52,60	
1544,082	-52,65	
1544,084	-52,59	
1544,086	-52,64	
1544,088	-52,66	
1544,090	-52,64	
1544,092	-52,65	
1544,094	-52,71	
1544,096	-52,76	
1544,098	-52,67	
1544,100	-52,60	
1544,102	-52,63	
1544,104	-52,74	
1544,106	-52,77	
1544,108	-52,69	
1544,110	-52,60	
1544,112	-52,79	
1544,114	-52,75	
1544,116	-52,76	
1544,118	-52,75	
1544,120	-52,68	
1544,122	-52,70	
1544,124	-52,78	
1544,126	-52,70	
1544,128	-52,77	
1544,130	-52,70	
1544,132	-52,66	
1544,134	-52,74	
1544,136	-52,84	
1544,138	-52,86	
1544,140	-52,78	
1544,142	-52,80	
1544,144	-52,97	
1544,146	-52,96	
1544,148	-52,85	
1544,150	-52,92	
1544,152	-52,95	
1544,154	-52,81	
1544,156	-52,80	
1544,158	-53,07	
1544,160	-52,95	
1544,162	-52,85	
1544,164	-52,91	
1544,166	-52,89	
1544,168	-52,85	
1544,170	-52,88	
1544,172	-52,90	
1544,174	-52,88	
1544,176	-52,84	
1544,178	-52,90	
1544,180	-52,95	
1544,182	-52,92	
1544,184	-52,89	
1544,186	-52,92	
1544,188	-52,85	
1544,190	-52,92	
1544,192	-52,93	
1544,194	-52,96	
1544,196	-52,91	
1544,198	-52,83	
1544,200	-52,83	
1544,202	-52,90	
1544,204	-52,93	
1544,206	-52,89	
1544,208	-52,99	
1544,210	-52,95	
1544,212	-53,00	
1544,214	-53,01	
1544,216	-52,99	
1544,218	-52,97	
1544,220	-53,01	
1544,222	-52,96	
1544,224	-53,03	
1544,226	-53,00	
1544,228	-53,01	
1544,230	-52,98	
1544,232	-52,92	
1544,234	-53,00	
1544,236	-52,96	
1544,238	-53,03	
1544,240	-52,95	
1544,242	-53,07	
1544,244	-53,07	
1544,246	-52,95	
1544,248	-53,03	
1544,250	-53,11	
1544,252	-53,00	
1544,254	-53,08	
1544,256	-53,04	
1544,258	-53,05	
1544,260	-53,09	
1544,262	-53,15	
1544,264	-53,16	
1544,266	-53,08	
1544,268	-52,98	
1544,270	-53,19	
1544,272	-53,10	
1544,274	-52,98	
1544,276	-53,04	
1544,278	-53,12	
1544,280	-53,10	
1544,282	-53,07	
1544,284	-53,02	
1544,286	-53,00	
1544,288	-53,03	
1544,290	-53,02	
1544,292	-53,11	
1544,294	-53,12	
1544,296	-53,14	
1544,298	-53,11	
1544,300	-53,03	
1544,302	-53,01	
1544,304	-53,01	
1544,306	-53,22	
1544,308	-53,25	
1544,310	-53,16	
1544,312	-53,12	
1544,314	-53,03	
1544,316	-53,05	
1544,318	-53,03	
1544,320	-52,95	
1544,322	-53,01	
1544,324	-52,99	
1544,326	-53,00	
1544,328	-53,14	
1544,330	-53,08	
1544,332	-53,13	
1544,334	-53,06	
1544,336	-52,98	
1544,338	-52,99	
1544,340	-53,05	
1544,342	-53,07	
1544,344	-53,11	
1544,346	-53,16	
1544,348	-53,15	
1544,350	-53,11	
1544,352	-53,10	
1544,354	-53,11	
1544,356	-53,08	
1544,358	-53,06	
1544,360	-53,06	
1544,362	-53,08	
1544,364	-53,19	
1544,366	-53,27	
1544,368	-53,16	
1544,370	-53,18	
1544,372	-53,10	
1544,374	-53,04	
1544,376	-53,06	
1544,378	-53,07	
1544,380	-53,06	
1544,382	-53,03	
1544,384	-53,00	
1544,386	-53,03	
1544,388	-53,09	
1544,390	-52,99	
1544,392	-53,08	
1544,394	-53,05	
1544,396	-52,98	
1544,398	-52,96	
1544,400	-52,95	
1544,402	-52,89	
1544,404	-52,84	
1544,406	-52,97	
1544,408	-53,08	
1544,410	-53,07	
1544,412	-53,09	
1544,414	-53,07	
1544,416	-53,06	
1544,418	-53,06	
1544,420	-52,94	
1544,422	-52,99	
1544,424	-53,04	
1544,426	-53,05	
1544,428	-53,19	
1544,430	-53,16	
1544,432	-53,11	
1544,434	-53,13	
1544,436	-53,06	
1544,438	-53,05	
1544,440	-53,06	
1544,442	-52,97	
1544,444	-53,03	
1544,446	-52,97	
1544,448	-52,99	
1544,450	-53,03	
1544,452	-53,01	
1544,454	-53,08	
1544,456	-53,05	
1544,458	-53,09	
1544,460	-53,08	
1544,462	-53,09	
1544,464	-53,03	
1544,466	-53,01	
1544,468	-53,04	
1544,470	-53,04	
1544,472	-53,00	
1544,474	-52,89	
1544,476	-52,96	
1544,478	-52,96	
1544,480	-52,89	
1544,482	-52,90	
1544,484	-52,93	
1544,486	-52,87	
1544,488	-52,85	
1544,490	-52,91	
1544,492	-52,94	
1544,494	-52,92	
1544,496	-52,95	
1544,498	-52,94	
1544,500	-52,91	
1544,502	-52,90	
1544,504	-52,89	
1544,506	-52,85	
1544,508	-52,94	
1544,510	-53,04	
1544,512	-52,94	
1544,514	-52,85	
1544,516	-52,89	
1544,518	-52,92	
1544,520	-52,96	
1544,522	-52,89	
1544,524	-52,89	
1544,526	-52,95	
1544,528	-52,85	
1544,530	-52,85	
1544,532	-52,86	
1544,534	-52,92	
1544,536	-52,84	
1544,538	-52,87	
1544,540	-52,92	
1544,542	-52,93	
1544,544	-52,99	
1544,546	-53,04	
1544,548	-52,89	
1544,550	-52,87	
1544,552	-52,87	
1544,554	-52,96	
1544,556	-52,89	
1544,558	-52,73	
1544,560	-52,64	
1544,562	-52,80	
1544,564	-52,75	
1544,566	-52,84	
1544,568	-52,94	
1544,570	-52,95	
1544,572	-52,94	
1544,574	-52,88	
1544,576	-52,69	
1544,578	-52,77	
1544,580	-52,91	
1544,582	-52,77	
1544,584	-52,79	
1544,586	-52,74	
1544,588	-52,87	
1544,590	-52,78	
1544,592	-52,77	
1544,594	-52,80	
1544,596	-52,80	
1544,598	-52,75	
1544,600	-52,69	
1544,602	-52,75	
1544,604	-52,72	
1544,606	-52,71	
1544,608	-52,87	
1544,610	-52,83	
1544,612	-52,74	
1544,614	-52,75	
1544,616	-52,83	
1544,618	-52,71	
1544,620	-52,65	
1544,622	-52,68	
1544,624	-52,67	
1544,626	-52,66	
1544,628	-52,66	
1544,630	-52,66	
1544,632	-52,66	
1544,634	-52,63	
1544,636	-52,58	
1544,638	-52,59	
1544,640	-52,56	
1544,642	-52,63	
1544,644	-52,55	
1544,646	-52,45	
1544,648	-52,54	
1544,650	-52,57	
1544,652	-52,58	
1544,654	-52,68	
1544,656	-52,65	
1544,658	-52,51	
1544,660	-52,44	
1544,662	-52,48	
1544,664	-52,48	
1544,666	-52,47	
1544,668	-52,48	
1544,670	-52,46	
1544,672	-52,52	
1544,674	-52,54	
1544,676	-52,48	
1544,678	-52,44	
1544,680	-52,44	
1544,682	-52,43	
1544,684	-52,41	
1544,686	-52,43	
1544,688	-52,49	
1544,690	-52,49	
1544,692	-52,43	
1544,694	-52,39	
1544,696	-52,38	
1544,698	-52,54	
1544,700	-52,54	
1544,702	-52,42	
1544,704	-52,41	
1544,706	-52,46	
1544,708	-52,35	
1544,710	-52,35	
1544,712	-52,40	
1544,714	-52,39	
1544,716	-52,37	
1544,718	-52,32	
1544,720	-52,36	
1544,722	-52,43	
1544,724	-52,38	
1544,726	-52,32	
1544,728	-52,26	
1544,730	-52,27	
1544,732	-52,28	
1544,734	-52,32	
1544,736	-52,29	
1544,738	-52,33	
1544,740	-52,36	
1544,742	-52,34	
1544,744	-52,34	
1544,746	-52,34	
1544,748	-52,35	
1544,750	-52,27	
1544,752	-52,28	
1544,754	-52,24	
1544,756	-52,29	
1544,758	-52,27	
1544,760	-52,19	
1544,762	-52,23	
1544,764	-52,16	
1544,766	-52,15	
1544,768	-52,21	
1544,770	-52,19	
1544,772	-52,12	
1544,774	-52,15	
1544,776	-52,20	
1544,778	-52,01	
1544,780	-52,02	
1544,782	-52,12	
1544,784	-52,13	
1544,786	-52,12	
1544,788	-52,11	
1544,790	-52,14	
1544,792	-52,13	
1544,794	-52,15	
1544,796	-52,19	
1544,798	-52,16	
1544,800	-52,10	
1544,802	-52,09	
1544,804	-52,08	
1544,806	-52,07	
1544,808	-52,12	
1544,810	-52,05	
1544,812	-51,97	
1544,814	-51,93	
1544,816	-51,96	
1544,818	-51,97	
1544,820	-51,96	
1544,822	-51,96	
1544,824	-51,93	
1544,826	-52,00	
1544,828	-51,96	
1544,830	-51,93	
1544,832	-51,85	
1544,834	-51,85	
1544,836	-51,89	
1544,838	-51,90	
1544,840	-51,92	
1544,842	-51,85	
1544,844	-51,81	
1544,846	-51,78	
1544,848	-51,76	
1544,850	-51,80	
1544,852	-51,84	
1544,854	-51,78	
1544,856	-51,86	
1544,858	-51,73	
1544,860	-51,73	
1544,862	-51,71	
1544,864	-51,74	
1544,866	-51,74	
1544,868	-51,65	
1544,870	-51,58	
1544,872	-51,61	
1544,874	-51,62	
1544,876	-51,64	
1544,878	-51,74	
1544,880	-51,70	
1544,882	-51,71	
1544,884	-51,80	
1544,886	-51,80	
1544,888	-51,69	
1544,890	-51,69	
1544,892	-51,70	
1544,894	-51,65	
1544,896	-51,71	
1544,898	-51,72	
1544,900	-51,73	
1544,902	-51,72	
1544,904	-51,67	
1544,906	-51,63	
1544,908	-51,58	
1544,910	-51,61	
1544,912	-51,69	
1544,914	-51,64	
1544,916	-51,57	
1544,918	-51,51	
1544,920	-51,60	
1544,922	-51,61	
1544,924	-51,63	
1544,926	-51,60	
1544,928	-51,53	
1544,930	-51,54	
1544,932	-51,54	
1544,934	-51,52	
1544,936	-51,55	
1544,938	-51,48	
1544,940	-51,56	
1544,942	-51,57	
1544,944	-51,51	
1544,946	-51,47	
1544,948	-51,49	
1544,950	-51,45	
1544,952	-51,42	
1544,954	-51,46	
1544,956	-51,48	
1544,958	-51,43	
1544,960	-51,33	
1544,962	-51,31	
1544,964	-51,30	
1544,966	-51,42	
1544,968	-51,35	
1544,970	-51,33	
1544,972	-51,40	
1544,974	-51,38	
1544,976	-51,29	
1544,978	-51,23	
1544,980	-51,27	
1544,982	-51,33	
1544,984	-51,20	
1544,986	-51,22	
1544,988	-51,36	
1544,990	-51,30	
1544,992	-51,37	
1544,994	-51,33	
1544,996	-51,27	
1544,998	-51,25	
1545,000	-51,27	
1545,002	-51,31	
1545,004	-51,32	
1545,006	-51,32	
1545,008	-51,33	
1545,010	-51,35	
1545,012	-51,33	
1545,014	-51,41	
1545,016	-51,38	
1545,018	-51,34	
1545,020	-51,34	
1545,022	-51,23	
1545,024	-51,22	
1545,026	-51,19	
1545,028	-51,22	
1545,030	-51,27	
1545,032	-51,24	
1545,034	-51,25	
1545,036	-51,26	
1545,038	-51,19	
1545,040	-51,16	
1545,042	-51,30	
1545,044	-51,25	
1545,046	-51,16	
1545,048	-51,25	
1545,050	-51,17	
1545,052	-51,12	
1545,054	-51,15	
1545,056	-51,10	
1545,058	-51,10	
1545,060	-51,16	
1545,062	-51,14	
1545,064	-51,05	
1545,066	-51,09	
1545,068	-51,08	
1545,070	-51,09	
1545,072	-51,18	
1545,074	-51,08	
1545,076	-51,02	
1545,078	-51,01	
1545,080	-51,02	
1545,082	-51,03	
1545,084	-51,05	
1545,086	-51,09	
1545,088	-51,09	
1545,090	-51,07	
1545,092	-51,09	
1545,094	-51,07	
1545,096	-51,09	
1545,098	-51,09	
1545,100	-51,09	
1545,102	-51,02	
1545,104	-51,02	
1545,106	-51,02	
1545,108	-51,04	
1545,110	-51,07	
1545,112	-51,03	
1545,114	-51,03	
1545,116	-51,01	
1545,118	-50,97	
1545,120	-50,99	
1545,122	-51,01	
1545,124	-50,96	
1545,126	-51,01	
1545,128	-51,08	
1545,130	-51,06	
1545,132	-51,03	
1545,134	-51,06	
1545,136	-51,01	
1545,138	-51,02	
1545,140	-50,90	
1545,142	-51,01	
1545,144	-51,02	
1545,146	-51,02	
1545,148	-51,01	
1545,150	-51,01	
1545,152	-50,99	
1545,154	-50,93	
1545,156	-50,93	
1545,158	-50,96	
1545,160	-51,09	
1545,162	-50,98	
1545,164	-51,05	
1545,166	-51,07	
1545,168	-51,02	
1545,170	-50,99	
1545,172	-51,00	
1545,174	-51,00	
1545,176	-50,97	
1545,178	-50,92	
1545,180	-50,92	
1545,182	-51,06	
1545,184	-50,98	
1545,186	-50,95	
1545,188	-50,99	
1545,190	-50,98	
1545,192	-50,93	
1545,194	-51,01	
1545,196	-51,07	
1545,198	-51,06	
1545,200	-51,09	
1545,202	-51,01	
1545,204	-50,98	
1545,206	-51,01	
1545,208	-50,99	
1545,210	-50,97	
1545,212	-50,98	
1545,214	-51,03	
1545,216	-51,10	
1545,218	-51,09	
1545,220	-51,06	
1545,222	-51,09	
1545,224	-51,16	
1545,226	-51,07	
1545,228	-51,01	
1545,230	-50,98	
1545,232	-50,98	
1545,234	-51,00	
1545,236	-51,03	
1545,238	-51,06	
1545,240	-51,04	
1545,242	-51,03	
1545,244	-50,99	
1545,246	-50,97	
1545,248	-51,03	
1545,250	-51,10	
1545,252	-51,09	
1545,254	-51,04	
1545,256	-51,07	
1545,258	-51,11	
1545,260	-50,99	
1545,262	-51,03	
1545,264	-51,08	
1545,266	-51,15	
1545,268	-51,13	
1545,270	-51,10	
1545,272	-51,16	
1545,274	-51,16	
1545,276	-51,11	
1545,278	-51,08	
1545,280	-51,14	
1545,282	-51,07	
1545,284	-51,03	
1545,286	-51,06	
1545,288	-51,08	
1545,290	-51,09	
1545,292	-51,18	
1545,294	-51,23	
1545,296	-51,18	
1545,298	-51,19	
1545,300	-51,18	
1545,302	-51,22	
1545,304	-51,19	
1545,306	-51,11	
1545,308	-51,04	
1545,310	-51,05	
1545,312	-51,17	
1545,314	-51,12	
1545,316	-51,15	
1545,318	-51,22	
1545,320	-51,14	
1545,322	-51,10	
1545,324	-51,20	
1545,326	-51,25	
1545,328	-51,21	
1545,330	-51,20	
1545,332	-51,25	
1545,334	-51,20	
1545,336	-51,14	
1545,338	-51,30	
1545,340	-51,30	
1545,342	-51,22	
1545,344	-51,21	
1545,346	-51,23	
1545,348	-51,20	
1545,350	-51,23	
1545,352	-51,27	
1545,354	-51,28	
1545,356	-51,33	
1545,358	-51,30	
1545,360	-51,24	
1545,362	-51,28	
1545,364	-51,38	
1545,366	-51,33	
1545,368	-51,33	
1545,370	-51,36	
1545,372	-51,34	
1545,374	-51,28	
1545,376	-51,37	
1545,378	-51,43	
1545,380	-51,32	
1545,382	-51,39	
1545,384	-51,30	
1545,386	-51,38	
1545,388	-51,36	
1545,390	-51,47	
1545,392	-51,39	
1545,394	-51,40	
1545,396	-51,38	
1545,398	-51,39	
1545,400	-51,47	
1545,402	-51,51	
1545,404	-51,48	
1545,406	-51,52	
1545,408	-51,52	
1545,410	-51,50	
1545,412	-51,51	
1545,414	-51,49	
1545,416	-51,48	
1545,418	-51,60	
1545,420	-51,59	
1545,422	-51,56	
1545,424	-51,55	
1545,426	-51,62	
1545,428	-51,62	
1545,430	-51,63	
1545,432	-51,73	
1545,434	-51,69	
1545,436	-51,63	
1545,438	-51,67	
1545,440	-51,58	
1545,442	-51,57	
1545,444	-51,66	
1545,446	-51,69	
1545,448	-51,71	
1545,450	-51,72	
1545,452	-51,73	
1545,454	-51,74	
1545,456	-51,74	
1545,458	-51,74	
1545,460	-51,77	
1545,462	-51,78	
1545,464	-51,73	
1545,466	-51,77	
1545,468	-51,69	
1545,470	-51,67	
1545,472	-51,75	
1545,474	-51,71	
1545,476	-51,71	
1545,478	-51,77	
1545,480	-51,83	
1545,482	-51,87	
1545,484	-51,88	
1545,486	-51,89	
1545,488	-51,92	
1545,490	-51,85	
1545,492	-51,93	
1545,494	-51,87	
1545,496	-51,80	
1545,498	-51,88	
1545,500	-51,87	
1545,502	-51,87	
1545,504	-51,96	
1545,506	-51,99	
1545,508	-51,94	
1545,510	-51,99	
1545,512	-52,00	
1545,514	-52,03	
1545,516	-51,95	
1545,518	-52,03	
1545,520	-52,09	
1545,522	-51,97	
1545,524	-51,99	
1545,526	-52,04	
1545,528	-52,11	
1545,530	-52,12	
1545,532	-52,13	
1545,534	-52,17	
1545,536	-52,10	
1545,538	-52,08	
1545,540	-52,20	
1545,542	-52,10	
1545,544	-52,15	
1545,546	-52,19	
1545,548	-52,23	
1545,550	-52,18	
1545,552	-52,18	
1545,554	-52,20	
1545,556	-52,22	
1545,558	-52,20	
1545,560	-52,16	
1545,562	-52,17	
1545,564	-52,28	
1545,566	-52,28	
1545,568	-52,30	
1545,570	-52,23	
1545,572	-52,18	
1545,574	-52,27	
1545,576	-52,31	
1545,578	-52,31	
1545,580	-52,27	
1545,582	-52,27	
1545,584	-52,34	
1545,586	-52,35	
1545,588	-52,32	
1545,590	-52,26	
1545,592	-52,31	
1545,594	-52,40	
1545,596	-52,33	
1545,598	-52,45	
1545,600	-52,46	
1545,602	-52,46	
1545,604	-52,49	
1545,606	-52,45	
1545,608	-52,39	
1545,610	-52,40	
1545,612	-52,41	
1545,614	-52,42	
1545,616	-52,40	
1545,618	-52,40	
1545,620	-52,41	
1545,622	-52,35	
1545,624	-52,48	
1545,626	-52,53	
1545,628	-52,55	
1545,630	-52,64	
1545,632	-52,65	
1545,634	-52,62	
1545,636	-52,62	
1545,638	-52,52	
1545,640	-52,65	
1545,642	-52,59	
1545,644	-52,60	
1545,646	-52,54	
1545,648	-52,65	
1545,650	-52,68	
1545,652	-52,62	
1545,654	-52,70	
1545,656	-52,76	
1545,658	-52,69	
1545,660	-52,70	
1545,662	-52,70	
1545,664	-52,66	
1545,666	-52,68	
1545,668	-52,75	
1545,670	-52,78	
1545,672	-52,75	
1545,674	-52,73	
1545,676	-52,78	
1545,678	-52,77	
1545,680	-52,70	
1545,682	-52,73	
1545,684	-52,75	
1545,686	-52,79	
1545,688	-52,74	
1545,690	-52,81	
1545,692	-52,89	
1545,694	-52,96	
1545,696	-52,92	
1545,698	-52,88	
1545,700	-52,83	
1545,702	-52,75	
1545,704	-52,80	
1545,706	-52,87	
1545,708	-52,87	
1545,710	-52,87	
1545,712	-52,82	
1545,714	-52,79	
1545,716	-52,88	
1545,718	-52,95	
1545,720	-53,00	
1545,722	-52,96	
1545,724	-53,06	
1545,726	-53,09	
1545,728	-53,14	
1545,730	-53,06	
1545,732	-52,98	
1545,734	-52,99	
1545,736	-53,05	
1545,738	-53,09	
1545,740	-52,95	
1545,742	-53,11	
1545,744	-53,07	
1545,746	-53,06	
1545,748	-53,20	
1545,750	-52,95	
1545,752	-53,09	
1545,754	-53,08	
1545,756	-53,11	
1545,758	-53,17	
1545,760	-53,20	
1545,762	-53,10	
1545,764	-53,10	
1545,766	-53,12	
1545,768	-53,01	
1545,770	-53,09	
1545,772	-53,06	
1545,774	-53,13	
1545,776	-53,00	
1545,778	-53,22	
1545,780	-53,18	
1545,782	-53,49	
1545,784	-53,27	
1545,786	-53,27	
1545,788	-53,43	
1545,790	-53,30	
1545,792	-53,19	
1545,794	-53,22	
1545,796	-53,22	
1545,798	-53,20	
1545,800	-53,21	
1545,802	-53,13	
1545,804	-53,25	
1545,806	-53,24	
1545,808	-53,18	
1545,810	-53,41	
1545,812	-53,24	
1545,814	-53,36	
1545,816	-53,45	
1545,818	-53,28	
1545,820	-53,23	
1545,822	-53,23	
1545,824	-53,17	
1545,826	-53,10	
1545,828	-53,15	
1545,830	-53,25	
1545,832	-53,30	
1545,834	-53,28	
1545,836	-53,22	
1545,838	-53,36	
1545,840	-53,45	
1545,842	-53,37	
1545,844	-53,46	
1545,846	-53,46	
1545,848	-53,49	
1545,850	-53,44	
1545,852	-53,39	
1545,854	-53,38	
1545,856	-53,40	
1545,858	-53,42	
1545,860	-53,46	
1545,862	-53,56	
1545,864	-53,48	
1545,866	-53,49	
1545,868	-53,58	
1545,870	-53,49	
1545,872	-53,55	
1545,874	-53,45	
1545,876	-53,53	
1545,878	-53,46	
1545,880	-53,51	
1545,882	-53,57	
1545,884	-53,50	
1545,886	-53,45	
1545,888	-53,46	
1545,890	-53,52	
1545,892	-53,54	
1545,894	-53,48	
1545,896	-53,52	
1545,898	-53,55	
1545,900	-53,57	
1545,902	-53,56	
1545,904	-53,45	
1545,906	-53,42	
1545,908	-53,37	
1545,910	-53,33	
1545,912	-53,31	
1545,914	-53,25	
1545,916	-53,21	
1545,918	-53,17	
1545,920	-53,23	
1545,922	-53,15	
1545,924	-53,16	
1545,926	-53,17	
1545,928	-53,15	
1545,930	-53,16	
1545,932	-53,14	
1545,934	-53,18	
1545,936	-53,27	
1545,938	-53,23	
1545,940	-53,22	
1545,942	-53,29	
1545,944	-53,41	
1545,946	-53,28	
1545,948	-53,39	
1545,950	-53,44	
1545,952	-53,64	
1545,954	-53,67	
1545,956	-53,71	
1545,958	-53,73	
1545,960	-53,65	
1545,962	-53,75	
1545,964	-53,83	
1545,966	-53,70	
1545,968	-53,74	
1545,970	-53,69	
1545,972	-53,64	
1545,974	-53,66	
1545,976	-53,62	
1545,978	-53,76	
1545,980	-53,74	
1545,982	-53,82	
1545,984	-53,78	
1545,986	-53,64	
1545,988	-53,65	
1545,990	-53,53	
1545,992	-53,46	
1545,994	-53,52	
1545,996	-53,45	
1545,998	-53,49	
1546,000	-53,71	
1546,002	-53,53	
1546,004	-53,75	
1546,006	-53,72	
1546,008	-53,60	
1546,010	-53,53	
1546,012	-53,58	
1546,014	-53,71	
1546,016	-53,80	
1546,018	-53,71	
1546,020	-53,62	
1546,022	-53,66	
1546,024	-53,67	
1546,026	-53,66	
1546,028	-53,65	
1546,030	-53,82	
1546,032	-53,90	
1546,034	-53,78	
1546,036	-53,73	
1546,038	-53,62	
1546,040	-53,58	
1546,042	-53,60	
1546,044	-53,55	
1546,046	-53,53	
1546,048	-53,60	
1546,050	-53,61	
1546,052	-53,57	
1546,054	-53,49	
1546,056	-53,43	
1546,058	-53,52	
1546,060	-53,62	
1546,062	-53,60	
1546,064	-53,45	
1546,066	-53,53	
1546,068	-53,48	
1546,070	-53,39	
1546,072	-53,44	
1546,074	-53,53	
1546,076	-53,50	
1546,078	-53,42	
1546,080	-53,45	
1546,082	-53,52	
1546,084	-53,45	
1546,086	-53,49	
1546,088	-53,55	
1546,090	-53,60	
1546,092	-53,52	
1546,094	-53,46	
1546,096	-53,47	
1546,098	-53,49	
1546,100	-53,51	
1546,102	-53,57	
1546,104	-53,48	
1546,106	-53,56	
1546,108	-53,61	
1546,110	-53,55	
1546,112	-53,64	
1546,114	-53,65	
1546,116	-53,58	
1546,118	-53,59	
1546,120	-53,58	
1546,122	-53,55	
1546,124	-53,65	
1546,126	-53,72	
1546,128	-53,57	
1546,130	-53,67	
1546,132	-53,76	
1546,134	-53,75	
1546,136	-53,61	
1546,138	-53,66	
1546,140	-53,64	
1546,142	-53,58	
1546,144	-53,57	
1546,146	-53,60	
1546,148	-53,61	
1546,150	-53,56	
1546,152	-53,53	
1546,154	-53,66	
1546,156	-53,61	
1546,158	-53,47	
1546,160	-53,40	
1546,162	-53,41	
1546,164	-53,46	
1546,166	-53,48	
1546,168	-53,53	
1546,170	-53,66	
1546,172	-53,67	
1546,174	-53,39	
1546,176	-53,32	
1546,178	-53,35	
1546,180	-53,43	
1546,182	-53,42	
1546,184	-53,47	
1546,186	-53,57	
1546,188	-53,58	
1546,190	-53,56	
1546,192	-53,54	
1546,194	-53,51	
1546,196	-53,50	
1546,198	-53,41	
1546,200	-53,41	
1546,202	-53,33	
1546,204	-53,28	
1546,206	-53,24	
1546,208	-53,30	
1546,210	-53,41	
1546,212	-53,33	
1546,214	-53,33	
1546,216	-53,23	
1546,218	-53,20	
1546,220	-53,22	
1546,222	-53,23	
1546,224	-53,21	
1546,226	-53,21	
1546,228	-53,34	
1546,230	-53,35	
1546,232	-53,30	
1546,234	-53,41	
1546,236	-53,29	
1546,238	-53,39	
1546,240	-53,40	
1546,242	-53,37	
1546,244	-53,41	
1546,246	-53,48	
1546,248	-53,33	
1546,250	-53,31	
1546,252	-53,36	
1546,254	-53,31	
1546,256	-53,25	
1546,258	-53,31	
1546,260	-53,37	
1546,262	-53,26	
1546,264	-53,23	
1546,266	-53,28	
1546,268	-53,12	
1546,270	-53,13	
1546,272	-53,19	
1546,274	-53,16	
1546,276	-53,12	
1546,278	-53,12	
1546,280	-53,15	
1546,282	-53,15	
1546,284	-53,07	
1546,286	-52,97	
1546,288	-53,07	
1546,290	-53,07	
1546,292	-53,00	
1546,294	-52,92	
1546,296	-52,94	
1546,298	-53,06	
1546,300	-53,02	
1546,302	-53,00	
1546,304	-53,01	
1546,306	-53,06	
1546,308	-53,19	
1546,310	-53,03	
1546,312	-52,94	
1546,314	-53,01	
1546,316	-52,91	
1546,318	-52,97	
1546,320	-52,91	
1546,322	-52,84	
1546,324	-52,83	
1546,326	-52,86	
1546,328	-52,88	
1546,330	-52,81	
1546,332	-52,70	
1546,334	-52,88	
1546,336	-52,88	
1546,338	-52,83	
1546,340	-52,71	
1546,342	-52,82	
1546,344	-52,84	
1546,346	-52,84	
1546,348	-52,85	
1546,350	-52,81	
1546,352	-52,75	
1546,354	-52,69	
1546,356	-52,75	
1546,358	-52,64	
1546,360	-52,55	
1546,362	-52,55	
1546,364	-52,61	
1546,366	-52,55	
1546,368	-52,45	
1546,370	-52,47	
1546,372	-52,44	
1546,374	-52,51	
1546,376	-52,50	
1546,378	-52,56	
1546,380	-52,51	
1546,382	-52,52	
1546,384	-52,46	
1546,386	-52,38	
1546,388	-52,40	
1546,390	-52,39	
1546,392	-52,37	
1546,394	-52,42	
1546,396	-52,36	
1546,398	-52,32	
1546,400	-52,39	
1546,402	-52,38	
1546,404	-52,32	
1546,406	-52,28	
1546,408	-52,27	
1546,410	-52,25	
1546,412	-52,23	
1546,414	-52,20	
1546,416	-52,13	
1546,418	-52,11	
1546,420	-52,13	
1546,422	-52,12	
1546,424	-52,07	
1546,426	-52,00	
1546,428	-52,03	
1546,430	-52,06	
1546,432	-51,92	
1546,434	-51,88	
1546,436	-51,93	
1546,438	-51,85	
1546,440	-51,84	
1546,442	-51,81	
1546,444	-51,79	
1546,446	-51,80	
1546,448	-51,84	
1546,450	-51,82	
1546,452	-51,72	
1546,454	-51,59	
1546,456	-51,63	
1546,458	-51,53	
1546,460	-51,48	
1546,462	-51,49	
1546,464	-51,48	
1546,466	-51,46	
1546,468	-51,47	
1546,470	-51,49	
1546,472	-51,44	
1546,474	-51,48	
1546,476	-51,32	
1546,478	-51,40	
1546,480	-51,41	
1546,482	-51,40	
1546,484	-51,41	
1546,486	-51,39	
1546,488	-51,39	
1546,490	-51,41	
1546,492	-51,28	
1546,494	-51,29	
1546,496	-51,28	
1546,498	-51,22	
1546,500	-51,25	
1546,502	-51,19	
1546,504	-51,16	
1546,506	-51,14	
1546,508	-51,10	
1546,510	-51,06	
1546,512	-51,06	
1546,514	-51,08	
1546,516	-51,06	
1546,518	-50,98	
1546,520	-51,01	
1546,522	-50,97	
1546,524	-50,90	
1546,526	-50,89	
1546,528	-50,87	
1546,530	-50,79	
1546,532	-50,79	
1546,534	-50,74	
1546,536	-50,70	
1546,538	-50,65	
1546,540	-50,67	
1546,542	-50,66	
1546,544	-50,62	
1546,546	-50,61	
1546,548	-50,56	
1546,550	-50,51	
1546,552	-50,44	
1546,554	-50,46	
1546,556	-50,42	
1546,558	-50,39	
1546,560	-50,35	
1546,562	-50,30	
1546,564	-50,28	
1546,566	-50,28	
1546,568	-50,30	
1546,570	-50,24	
1546,572	-50,17	
1546,574	-50,24	
1546,576	-50,18	
1546,578	-50,14	
1546,580	-50,11	
1546,582	-50,05	
1546,584	-49,96	
1546,586	-49,94	
1546,588	-49,97	
1546,590	-49,92	
1546,592	-49,89	
1546,594	-49,87	
1546,596	-49,74	
1546,598	-49,73	
1546,600	-49,73	
1546,602	-49,66	
1546,604	-49,70	
1546,606	-49,69	
1546,608	-49,60	
1546,610	-49,52	
1546,612	-49,47	
1546,614	-49,44	
1546,616	-49,44	
1546,618	-49,43	
1546,620	-49,41	
1546,622	-49,32	
1546,624	-49,22	
1546,626	-49,17	
1546,628	-49,22	
1546,630	-49,19	
1546,632	-49,11	
1546,634	-49,08	
1546,636	-49,04	
1546,638	-48,99	
1546,640	-48,92	
1546,642	-48,87	
1546,644	-48,85	
1546,646	-48,81	
1546,648	-48,76	
1546,650	-48,76	
1546,652	-48,71	
1546,654	-48,68	
1546,656	-48,66	
1546,658	-48,60	
1546,660	-48,58	
1546,662	-48,58	
1546,664	-48,53	
1546,666	-48,46	
1546,668	-48,41	
1546,670	-48,35	
1546,672	-48,31	
1546,674	-48,27	
1546,676	-48,24	
1546,678	-48,20	
1546,680	-48,17	
1546,682	-48,12	
1546,684	-48,07	
1546,686	-48,02	
1546,688	-47,98	
1546,690	-47,92	
1546,692	-47,89	
1546,694	-47,84	
1546,696	-47,79	
1546,698	-47,75	
1546,700	-47,69	
1546,702	-47,66	
1546,704	-47,59	
1546,706	-47,55	
1546,708	-47,50	
1546,710	-47,44	
1546,712	-47,39	
1546,714	-47,35	
1546,716	-47,30	
1546,718	-47,27	
1546,720	-47,25	
1546,722	-47,16	
1546,724	-47,11	
1546,726	-47,07	
1546,728	-47,00	
1546,730	-46,96	
1546,732	-46,92	
1546,734	-46,86	
1546,736	-46,80	
1546,738	-46,76	
1546,740	-46,72	
1546,742	-46,67	
1546,744	-46,63	
1546,746	-46,58	
1546,748	-46,50	
1546,750	-46,46	
1546,752	-46,40	
1546,754	-46,35	
1546,756	-46,31	
1546,758	-46,26	
1546,760	-46,21	
1546,762	-46,15	
1546,764	-46,09	
1546,766	-46,03	
1546,768	-45,96	
1546,770	-45,91	
1546,772	-45,87	
1546,774	-45,82	
1546,776	-45,75	
1546,778	-45,71	
1546,780	-45,67	
1546,782	-45,60	
1546,784	-45,54	
1546,786	-45,49	
1546,788	-45,43	
1546,790	-45,38	
1546,792	-45,34	
1546,794	-45,28	
1546,796	-45,22	
1546,798	-45,18	
1546,800	-45,12	
1546,802	-45,05	
1546,804	-44,99	
1546,806	-44,94	
1546,808	-44,89	
1546,810	-44,83	
1546,812	-44,78	
1546,814	-44,72	
1546,816	-44,66	
1546,818	-44,62	
1546,820	-44,56	
1546,822	-44,49	
1546,824	-44,43	
1546,826	-44,40	
1546,828	-44,35	
1546,830	-44,31	
1546,832	-44,28	
1546,834	-44,22	
1546,836	-44,15	
1546,838	-44,10	
1546,840	-44,06	
1546,842	-44,01	
1546,844	-43,98	
1546,846	-43,90	
1546,848	-43,85	
1546,850	-43,82	
1546,852	-43,78	
1546,854	-43,75	
1546,856	-43,71	
1546,858	-43,65	
1546,860	-43,60	
1546,862	-43,55	
1546,864	-43,51	
1546,866	-43,50	
1546,868	-43,47	
1546,870	-43,40	
1546,872	-43,35	
1546,874	-43,31	
1546,876	-43,27	
1546,878	-43,27	
1546,880	-43,23	
1546,882	-43,19	
1546,884	-43,16	
1546,886	-43,13	
1546,888	-43,10	
1546,890	-43,08	
1546,892	-43,06	
1546,894	-43,03	
1546,896	-43,01	
1546,898	-43,00	
1546,900	-42,98	
1546,902	-42,97	
1546,904	-42,96	
1546,906	-42,94	
1546,908	-42,90	
1546,910	-42,92	
1546,912	-42,90	
1546,914	-42,91	
1546,916	-42,88	
1546,918	-42,88	
1546,920	-42,87	
1546,922	-42,87	
1546,924	-42,86	
1546,926	-42,87	
1546,928	-42,87	
1546,930	-42,87	
1546,932	-42,87	
1546,934	-42,86	
1546,936	-42,88	
1546,938	-42,89	
1546,940	-42,88	
1546,942	-42,91	
1546,944	-42,91	
1546,946	-42,91	
1546,948	-42,96	
1546,950	-42,96	
1546,952	-42,97	
1546,954	-43,01	
1546,956	-43,03	
1546,958	-43,06	
1546,960	-43,09	
1546,962	-43,10	
1546,964	-43,12	
1546,966	-43,14	
1546,968	-43,15	
1546,970	-43,17	
1546,972	-43,20	
1546,974	-43,24	
1546,976	-43,28	
1546,978	-43,33	
1546,980	-43,35	
1546,982	-43,39	
1546,984	-43,44	
1546,986	-43,49	
1546,988	-43,52	
1546,990	-43,57	
1546,992	-43,63	
1546,994	-43,64	
1546,996	-43,68	
1546,998	-43,74	
1547,000	-43,76	
1547,002	-43,82	
1547,004	-43,88	
1547,006	-43,93	
1547,008	-43,99	
1547,010	-44,04	
1547,012	-44,07	
1547,014	-44,12	
1547,016	-44,19	
1547,018	-44,22	
1547,020	-44,25	
1547,022	-44,31	
1547,024	-44,39	
1547,026	-44,44	
1547,028	-44,49	
1547,030	-44,53	
1547,032	-44,57	
1547,034	-44,70	
1547,036	-44,73	
1547,038	-44,75	
1547,040	-44,81	
1547,042	-44,88	
1547,044	-44,94	
1547,046	-45,00	
1547,048	-45,06	
1547,050	-45,11	
1547,052	-45,15	
1547,054	-45,19	
1547,056	-45,30	
1547,058	-45,39	
1547,060	-45,41	
1547,062	-45,45	
1547,064	-45,49	
1547,066	-45,56	
1547,068	-45,63	
1547,070	-45,71	
1547,072	-45,76	
1547,074	-45,83	
1547,076	-45,89	
1547,078	-45,94	
1547,080	-46,02	
1547,082	-46,05	
1547,084	-46,11	
1547,086	-46,14	
1547,088	-46,24	
1547,090	-46,28	
1547,092	-46,32	
1547,094	-46,37	
1547,096	-46,42	
1547,098	-46,51	
1547,100	-46,58	
1547,102	-46,62	
1547,104	-46,66	
1547,106	-46,71	
1547,108	-46,77	
1547,110	-46,83	
1547,112	-46,88	
1547,114	-46,94	
1547,116	-47,02	
1547,118	-47,07	
1547,120	-47,15	
1547,122	-47,21	
1547,124	-47,30	
1547,126	-47,34	
1547,128	-47,39	
1547,130	-47,45	
1547,132	-47,50	
1547,134	-47,55	
1547,136	-47,63	
1547,138	-47,66	
1547,140	-47,75	
1547,142	-47,78	
1547,144	-47,79	
1547,146	-47,87	
1547,148	-47,94	
1547,150	-47,96	
1547,152	-47,97	
1547,154	-48,02	
1547,156	-48,07	
1547,158	-48,18	
1547,160	-48,21	
1547,162	-48,26	
1547,164	-48,25	
1547,166	-48,33	
1547,168	-48,44	
1547,170	-48,45	
1547,172	-48,53	
1547,174	-48,61	
1547,176	-48,67	
1547,178	-48,73	
1547,180	-48,78	
1547,182	-48,80	
1547,184	-48,84	
1547,186	-48,89	
1547,188	-48,91	
1547,190	-48,98	
1547,192	-49,06	
1547,194	-49,09	
1547,196	-49,14	
1547,198	-49,18	
1547,200	-49,26	
1547,202	-49,31	
1547,204	-49,29	
1547,206	-49,43	
1547,208	-49,44	
1547,210	-49,52	
1547,212	-49,56	
1547,214	-49,66	
1547,216	-49,64	
1547,218	-49,66	
1547,220	-49,71	
1547,222	-49,73	
1547,224	-49,77	
1547,226	-49,82	
1547,228	-49,85	
1547,230	-49,91	
1547,232	-50,03	
1547,234	-50,05	
1547,236	-50,12	
1547,238	-50,11	
1547,240	-50,14	
1547,242	-50,21	
1547,244	-50,17	
1547,246	-50,14	
1547,248	-50,17	
1547,250	-50,26	
1547,252	-50,30	
1547,254	-50,28	
1547,256	-50,33	
1547,258	-50,38	
1547,260	-50,37	
1547,262	-50,44	
1547,264	-50,48	
1547,266	-50,50	
1547,268	-50,54	
1547,270	-50,56	
1547,272	-50,66	
1547,274	-50,80	
1547,276	-50,90	
1547,278	-50,91	
1547,280	-50,86	
1547,282	-50,92	
1547,284	-50,99	
1547,286	-50,97	
1547,288	-50,98	
1547,290	-51,08	
1547,292	-51,09	
1547,294	-51,06	
1547,296	-51,05	
1547,298	-51,15	
1547,300	-51,17	
1547,302	-51,10	
1547,304	-51,19	
1547,306	-51,31	
1547,308	-51,43	
1547,310	-51,51	
1547,312	-51,51	
1547,314	-51,48	
1547,316	-51,55	
1547,318	-51,70	
1547,320	-51,71	
1547,322	-51,62	
1547,324	-51,80	
1547,326	-51,73	
1547,328	-51,80	
1547,330	-51,84	
1547,332	-51,87	
1547,334	-51,93	
1547,336	-51,97	
1547,338	-52,00	
1547,340	-52,08	
1547,342	-52,05	
1547,344	-52,13	
1547,346	-52,12	
1547,348	-52,22	
1547,350	-52,21	
1547,352	-52,25	
1547,354	-52,22	
1547,356	-52,30	
1547,358	-52,34	
1547,360	-52,32	
1547,362	-52,39	
1547,364	-52,40	
1547,366	-52,36	
1547,368	-52,30	
1547,370	-52,46	
1547,372	-52,46	
1547,374	-52,54	
1547,376	-52,59	
1547,378	-52,67	
1547,380	-52,63	
1547,382	-52,60	
1547,384	-52,66	
1547,386	-52,68	
1547,388	-52,68	
1547,390	-52,80	
1547,392	-52,76	
1547,394	-52,82	
1547,396	-52,72	
1547,398	-52,90	
1547,400	-52,89	
1547,402	-52,93	
1547,404	-52,88	
1547,406	-52,94	
1547,408	-53,01	
1547,410	-53,08	
1547,412	-53,11	
1547,414	-53,07	
1547,416	-53,05	
1547,418	-53,12	
1547,420	-53,15	
1547,422	-53,16	
1547,424	-53,13	
1547,426	-53,17	
1547,428	-53,11	
1547,430	-53,16	
1547,432	-53,24	
1547,434	-53,24	
1547,436	-53,19	
1547,438	-53,27	
1547,440	-53,38	
1547,442	-53,32	
1547,444	-53,32	
1547,446	-53,25	
1547,448	-53,46	
1547,450	-53,37	
1547,452	-53,52	
1547,454	-53,53	
1547,456	-53,58	
1547,458	-53,68	
1547,460	-53,70	
1547,462	-53,64	
1547,464	-53,61	
1547,466	-53,69	
1547,468	-53,73	
1547,470	-53,75	
1547,472	-53,80	
1547,474	-53,84	
1547,476	-53,90	
1547,478	-54,03	
1547,480	-54,14	
1547,482	-54,13	
1547,484	-54,24	
1547,486	-54,09	
1547,488	-54,01	
1547,490	-53,97	
1547,492	-53,97	
1547,494	-54,11	
1547,496	-54,24	
1547,498	-54,23	
1547,500	-54,22	
1547,502	-54,27	
1547,504	-54,21	
1547,506	-54,07	
1547,508	-54,17	
1547,510	-54,06	
1547,512	-54,05	
1547,514	-54,16	
1547,516	-54,22	
1547,518	-54,32	
1547,520	-54,35	
1547,522	-54,48	
1547,524	-54,27	
1547,526	-54,43	
1547,528	-54,44	
1547,530	-54,47	
1547,532	-54,56	
1547,534	-54,61	
1547,536	-54,60	
1547,538	-54,59	
1547,540	-54,67	
1547,542	-54,41	
1547,544	-54,47	
1547,546	-54,78	
1547,548	-54,63	
1547,550	-54,71	
1547,552	-54,81	
1547,554	-54,75	
1547,556	-54,73	
1547,558	-54,76	
1547,560	-54,52	
1547,562	-54,67	
1547,564	-54,65	
1547,566	-54,63	
1547,568	-54,54	
1547,570	-54,57	
1547,572	-54,75	
1547,574	-54,79	
1547,576	-54,60	
1547,578	-54,66	
1547,580	-54,86	
1547,582	-54,87	
1547,584	-55,03	
1547,586	-55,00	
1547,588	-54,80	
1547,590	-54,81	
1547,592	-54,77	
1547,594	-54,75	
1547,596	-54,85	
1547,598	-54,77	
1547,600	-54,65	
1547,602	-54,91	
1547,604	-54,97	
1547,606	-54,67	
1547,608	-54,82	
1547,610	-54,70	
1547,612	-54,72	
1547,614	-54,82	
1547,616	-54,89	
1547,618	-54,96	
1547,620	-54,91	
1547,622	-55,06	
1547,624	-55,00	
1547,626	-55,03	
1547,628	-55,15	
1547,630	-55,06	
1547,632	-55,10	
1547,634	-55,23	
1547,636	-55,26	
1547,638	-55,26	
1547,640	-55,32	
1547,642	-55,26	
1547,644	-55,60	
1547,646	-55,60	
1547,648	-55,75	
1547,650	-55,77	
1547,652	-55,78	
1547,654	-55,68	
1547,656	-55,60	
1547,658	-55,57	
1547,660	-55,49	
1547,662	-55,45	
1547,664	-55,93	
1547,666	-55,96	
1547,668	-55,90	
1547,670	-56,08	
1547,672	-56,22	
1547,674	-55,98	
1547,676	-55,92	
1547,678	-55,87	
1547,680	-55,91	
1547,682	-55,94	
1547,684	-55,97	
1547,686	-56,07	
1547,688	-55,90	
1547,690	-55,89	
1547,692	-55,79	
1547,694	-55,96	
1547,696	-55,99	
1547,698	-56,07	
1547,700	-56,10	
1547,702	-55,95	
1547,704	-55,78	
1547,706	-55,78	
1547,708	-55,95	
1547,710	-56,06	
1547,712	-55,72	
1547,714	-56,00	
1547,716	-56,01	
1547,718	-56,09	
1547,720	-56,05	
1547,722	-56,01	
1547,724	-56,01	
1547,726	-56,13	
1547,728	-56,27	
1547,730	-56,25	
1547,732	-56,14	
1547,734	-56,08	
1547,736	-56,21	
1547,738	-56,34	
1547,740	-55,96	
1547,742	-56,35	
1547,744	-56,52	
1547,746	-56,53	
1547,748	-56,31	
1547,750	-56,12	
1547,752	-56,13	
1547,754	-56,09	
1547,756	-56,01	
1547,758	-56,14	
1547,760	-55,97	
1547,762	-56,11	
1547,764	-56,25	
1547,766	-56,20	
1547,768	-56,18	
1547,770	-56,18	
1547,772	-56,22	
1547,774	-56,09	
1547,776	-56,26	
1547,778	-56,52	
1547,780	-56,43	
1547,782	-56,26	
1547,784	-56,26	
1547,786	-56,26	
1547,788	-56,73	
1547,790	-56,79	
1547,792	-56,35	
1547,794	-56,42	
1547,796	-56,32	
1547,798	-56,28	
1547,800	-56,33	
1547,802	-56,28	
1547,804	-56,20	
1547,806	-56,28	
1547,808	-56,30	
1547,810	-56,19	
1547,812	-56,06	
1547,814	-56,36	
1547,816	-56,32	
1547,818	-56,37	
1547,820	-56,42	
1547,822	-56,51	
1547,824	-56,61	
1547,826	-56,61	
1547,828	-56,58	
1547,830	-56,68	
1547,832	-56,76	
1547,834	-56,62	
1547,836	-56,37	
1547,838	-56,39	
1547,840	-56,33	
1547,842	-56,51	
1547,844	-56,50	
1547,846	-56,41	
1547,848	-56,37	
1547,850	-56,33	
1547,852	-56,21	
1547,854	-56,15	
1547,856	-56,13	
1547,858	-56,05	
1547,860	-55,96	
1547,862	-55,97	
1547,864	-56,11	
1547,866	-55,98	
1547,868	-55,84	
1547,870	-55,66	
1547,872	-55,61	
1547,874	-55,43	
1547,876	-55,40	
1547,878	-55,34	
1547,880	-55,42	
1547,882	-55,31	
1547,884	-55,24	
1547,886	-55,31	
1547,888	-55,39	
1547,890	-55,51	
1547,892	-55,47	
1547,894	-55,42	
1547,896	-55,68	
1547,898	-55,75	
1547,900	-55,61	
1547,902	-55,68	
1547,904	-55,92	
1547,906	-55,72	
1547,908	-55,91	
1547,910	-55,90	
1547,912	-56,14	
1547,914	-56,19	
1547,916	-56,10	
1547,918	-56,27	
1547,920	-56,20	
1547,922	-56,24	
1547,924	-56,35	
1547,926	-56,44	
1547,928	-56,45	
1547,930	-56,36	
1547,932	-56,37	
1547,934	-56,44	
1547,936	-56,23	
1547,938	-56,22	
1547,940	-56,20	
1547,942	-55,94	
1547,944	-55,96	
1547,946	-55,96	
1547,948	-56,09	
1547,950	-56,12	
1547,952	-56,26	
1547,954	-56,29	
1547,956	-56,35	
1547,958	-56,68	
1547,960	-56,88	
1547,962	-56,98	
1547,964	-56,85	
1547,966	-56,81	
1547,968	-57,01	
1547,970	-57,19	
1547,972	-57,52	
1547,974	-57,20	
1547,976	-57,08	
1547,978	-57,19	
1547,980	-57,06	
1547,982	-57,37	
1547,984	-57,20	
1547,986	-57,46	
1547,988	-57,43	
1547,990	-57,42	
1547,992	-57,37	
1547,994	-57,29	
1547,996	-57,04	
1547,998	-57,00	
1548,000	-57,21	
1548,002	-57,34	
1548,004	-57,27	
1548,006	-57,27	
1548,008	-57,33	
1548,010	-57,19	
1548,012	-57,71	
1548,014	-56,75	
1548,016	-56,97	
1548,018	-56,84	
1548,020	-56,98	
1548,022	-56,96	
1548,024	-56,70	
1548,026	-56,65	
1548,028	-56,69	
1548,030	-56,76	
1548,032	-56,96	
1548,034	-56,95	
1548,036	-57,08	
1548,038	-56,91	
1548,040	-57,15	
1548,042	-56,90	
1548,044	-57,23	
1548,046	-57,45	
1548,048	-57,12	
1548,050	-57,10	
1548,052	-57,21	
1548,054	-57,14	
1548,056	-56,93	
1548,058	-56,84	
1548,060	-56,99	
1548,062	-57,05	
1548,064	-56,99	
1548,066	-57,15	
1548,068	-57,09	
1548,070	-57,31	
1548,072	-57,15	
1548,074	-57,11	
1548,076	-57,07	
1548,078	-57,10	
1548,080	-57,11	
1548,082	-57,03	
1548,084	-57,06	
1548,086	-57,16	
1548,088	-57,16	
1548,090	-57,26	
1548,092	-56,91	
1548,094	-57,06	
1548,096	-57,09	
1548,098	-57,24	
1548,100	-57,16	
1548,102	-56,96	
1548,104	-56,95	
1548,106	-56,86	
1548,108	-56,84	
1548,110	-57,06	
1548,112	-57,00	
1548,114	-56,96	
1548,116	-57,09	
1548,118	-57,14	
1548,120	-57,46	
1548,122	-56,81	
1548,124	-57,08	
1548,126	-56,81	
1548,128	-57,00	
1548,130	-56,98	
1548,132	-56,95	
1548,134	-56,86	
1548,136	-56,69	
1548,138	-56,70	
1548,140	-56,73	
1548,142	-56,65	
1548,144	-56,57	
1548,146	-56,28	
1548,148	-56,28	
1548,150	-56,07	
1548,152	-55,76	
1548,154	-55,64	
1548,156	-55,73	
1548,158	-55,70	
1548,160	-55,70	
1548,162	-55,82	
1548,164	-56,03	
1548,166	-56,39	
1548,168	-56,66	
1548,170	-56,56	
1548,172	-56,57	
1548,174	-56,92	
1548,176	-56,67	
1548,178	-56,98	
1548,180	-57,07	
1548,182	-57,11	
1548,184	-57,19	
1548,186	-57,02	
1548,188	-57,04	
1548,190	-57,03	
1548,192	-57,10	
1548,194	-57,11	
1548,196	-56,93	
1548,198	-56,85	
1548,200	-56,97	
1548,202	-57,06	
1548,204	-57,03	
1548,206	-56,73	
1548,208	-56,78	
1548,210	-57,05	
1548,212	-56,77	
1548,214	-57,04	
1548,216	-56,70	
1548,218	-56,64	
1548,220	-56,67	
1548,222	-56,55	
1548,224	-56,45	
1548,226	-56,41	
1548,228	-56,31	
1548,230	-56,23	
1548,232	-56,53	
1548,234	-56,32	
1548,236	-56,50	
1548,238	-57,02	
1548,240	-56,83	
1548,242	-57,00	
1548,244	-56,87	
1548,246	-56,86	
1548,248	-57,20	
1548,250	-57,30	
1548,252	-57,04	
1548,254	-57,19	
1548,256	-57,25	
1548,258	-57,23	
1548,260	-56,74	
1548,262	-57,06	
1548,264	-57,44	
1548,266	-57,02	
1548,268	-56,96	
1548,270	-56,82	
1548,272	-56,81	
1548,274	-57,06	
1548,276	-57,27	
1548,278	-57,57	
1548,280	-57,15	
1548,282	-57,13	
1548,284	-57,17	
1548,286	-56,74	
1548,288	-56,55	
1548,290	-56,45	
1548,292	-56,34	
1548,294	-56,15	
1548,296	-56,13	
1548,298	-56,25	
1548,300	-56,25	
1548,302	-56,41	
1548,304	-56,43	
1548,306	-56,58	
1548,308	-56,80	
1548,310	-57,31	
1548,312	-57,01	
1548,314	-57,24	
1548,316	-57,24	
1548,318	-57,02	
1548,320	-56,73	
1548,322	-56,51	
1548,324	-56,58	
1548,326	-56,75	
1548,328	-56,44	
1548,330	-56,58	
1548,332	-56,49	
1548,334	-56,50	
1548,336	-56,62	
1548,338	-56,94	
1548,340	-56,99	
1548,342	-57,00	
1548,344	-56,88	
1548,346	-56,50	
1548,348	-56,38	
1548,350	-56,34	
1548,352	-56,33	
1548,354	-56,12	
1548,356	-55,98	
1548,358	-56,07	
1548,360	-56,27	
1548,362	-56,26	
1548,364	-56,22	
1548,366	-56,36	
1548,368	-56,45	
1548,370	-56,33	
1548,372	-56,37	
1548,374	-56,36	
1548,376	-56,21	
1548,378	-56,11	
1548,380	-55,97	
1548,382	-55,76	
1548,384	-55,84	
1548,386	-55,91	
1548,388	-55,78	
1548,390	-55,56	
1548,392	-55,44	
1548,394	-55,53	
1548,396	-55,24	
1548,398	-55,13	
1548,400	-55,20	
1548,402	-55,36	
1548,404	-55,37	
1548,406	-55,25	
1548,408	-55,23	
1548,410	-55,47	
1548,412	-55,74	
1548,414	-55,76	
1548,416	-56,10	
1548,418	-55,99	
1548,420	-56,50	
1548,422	-56,51	
1548,424	-56,49	
1548,426	-56,21	
1548,428	-56,02	
1548,430	-56,15	
1548,432	-56,26	
1548,434	-56,21	
1548,436	-56,44	
1548,438	-56,33	
1548,440	-56,06	
1548,442	-56,09	
1548,444	-56,12	
1548,446	-56,04	
1548,448	-56,04	
1548,450	-56,22	
1548,452	-56,21	
1548,454	-55,88	
1548,456	-55,91	
1548,458	-55,71	
1548,460	-55,74	
1548,462	-56,04	
1548,464	-55,72	
1548,466	-55,75	
1548,468	-55,94	
1548,470	-55,97	
1548,472	-55,93	
1548,474	-55,87	
1548,476	-56,17	
1548,478	-56,01	
1548,480	-55,82	
1548,482	-55,72	
1548,484	-55,51	
1548,486	-55,42	
1548,488	-55,38	
1548,490	-55,29	
1548,492	-55,30	
1548,494	-55,35	
1548,496	-55,20	
1548,498	-55,36	
1548,500	-55,48	
1548,502	-55,54	
1548,504	-55,48	
1548,506	-55,41	
1548,508	-55,45	
1548,510	-55,55	
1548,512	-55,80	
1548,514	-55,78	
1548,516	-55,88	
1548,518	-56,03	
1548,520	-56,10	
1548,522	-56,14	
1548,524	-56,19	
1548,526	-56,13	
1548,528	-55,90	
1548,530	-55,64	
1548,532	-55,98	
1548,534	-55,68	
1548,536	-55,48	
1548,538	-55,32	
1548,540	-55,29	
1548,542	-55,21	
1548,544	-54,99	
1548,546	-55,39	
1548,548	-54,94	
1548,550	-54,83	
1548,552	-54,82	
1548,554	-54,87	
1548,556	-55,04	
1548,558	-55,25	
1548,560	-55,36	
1548,562	-55,45	
1548,564	-55,45	
1548,566	-55,91	
1548,568	-55,72	
1548,570	-55,57	
1548,572	-55,40	
1548,574	-55,22	
1548,576	-54,89	
1548,578	-54,47	
1548,580	-54,35	
1548,582	-54,16	
1548,584	-54,04	
1548,586	-54,18	
1548,588	-54,11	
1548,590	-54,09	
1548,592	-54,20	
1548,594	-54,34	
1548,596	-54,60	
1548,598	-54,90	
1548,600	-54,85	
1548,602	-54,92	
1548,604	-55,17	
1548,606	-55,40	
1548,608	-55,52	
1548,610	-55,65	
1548,612	-55,89	
1548,614	-55,73	
1548,616	-55,68	
1548,618	-55,53	
1548,620	-55,30	
1548,622	-55,10	
1548,624	-54,90	
1548,626	-54,66	
1548,628	-54,39	
1548,630	-54,18	
1548,632	-54,15	
1548,634	-54,05	
1548,636	-54,08	
1548,638	-54,12	
1548,640	-54,13	
1548,642	-54,19	
1548,644	-54,35	
1548,646	-54,63	
1548,648	-54,74	
1548,650	-54,77	
1548,652	-54,63	
1548,654	-54,53	
1548,656	-54,39	
1548,658	-54,24	
1548,660	-54,22	
1548,662	-53,98	
1548,664	-54,01	
1548,666	-53,94	
1548,668	-54,15	
1548,670	-54,26	
1548,672	-54,30	
1548,674	-54,52	
1548,676	-54,87	
1548,678	-54,85	
1548,680	-54,87	
1548,682	-55,04	
1548,684	-55,02	
1548,686	-54,97	
1548,688	-54,84	
1548,690	-54,68	
1548,692	-54,78	
1548,694	-54,81	
1548,696	-54,74	
1548,698	-54,83	
1548,700	-54,86	
1548,702	-54,76	
1548,704	-54,63	
1548,706	-54,50	
1548,708	-54,17	
1548,710	-53,75	
1548,712	-53,58	
1548,714	-53,18	
1548,716	-52,88	
1548,718	-52,62	
1548,720	-52,46	
1548,722	-52,43	
1548,724	-52,43	
1548,726	-52,30	
1548,728	-52,44	
1548,730	-52,77	
1548,732	-53,01	
1548,734	-53,33	
1548,736	-53,46	
1548,738	-53,57	
1548,740	-53,75	
1548,742	-53,78	
1548,744	-53,54	
1548,746	-53,61	
1548,748	-53,16	
1548,750	-53,13	
1548,752	-52,88	
1548,754	-52,78	
1548,756	-52,66	
1548,758	-52,55	
1548,760	-52,50	
1548,762	-52,48	
1548,764	-52,54	
1548,766	-52,67	
1548,768	-52,78	
1548,770	-53,02	
1548,772	-53,21	
1548,774	-53,37	
1548,776	-53,60	
1548,778	-53,70	
1548,780	-53,59	
1548,782	-53,44	
1548,784	-53,33	
1548,786	-53,11	
1548,788	-52,73	
1548,790	-52,37	
1548,792	-51,98	
1548,794	-51,85	
1548,796	-51,66	
1548,798	-51,59	
1548,800	-51,64	
1548,802	-51,77	
1548,804	-51,92	
1548,806	-52,12	
1548,808	-52,30	
1548,810	-52,38	
1548,812	-52,46	
1548,814	-52,63	
1548,816	-52,65	
1548,818	-52,44	
1548,820	-52,22	
1548,822	-51,93	
1548,824	-51,57	
1548,826	-51,24	
1548,828	-50,97	
1548,830	-50,70	
1548,832	-50,45	
1548,834	-50,09	
1548,836	-49,88	
1548,838	-49,81	
1548,840	-49,80	
1548,842	-49,78	
1548,844	-49,80	
1548,846	-49,87	
1548,848	-49,97	
1548,850	-50,09	
1548,852	-50,11	
1548,854	-50,07	
1548,856	-49,96	
1548,858	-49,88	
1548,860	-49,74	
1548,862	-49,50	
1548,864	-49,26	
1548,866	-49,14	
1548,868	-49,09	
1548,870	-49,16	
1548,872	-49,32	
1548,874	-49,50	
1548,876	-49,75	
1548,878	-50,08	
1548,880	-50,52	
1548,882	-51,00	
1548,884	-51,28	
1548,886	-51,50	
1548,888	-51,49	
1548,890	-51,03	
1548,892	-50,65	
1548,894	-50,04	
1548,896	-49,49	
1548,898	-49,04	
1548,900	-48,64	
1548,902	-48,36	
1548,904	-48,30	
1548,906	-48,33	
1548,908	-48,65	
1548,910	-48,83	
1548,912	-49,19	
1548,914	-49,51	
1548,916	-49,64	
1548,918	-49,62	
1548,920	-49,45	
1548,922	-49,07	
1548,924	-48,64	
1548,926	-48,39	
1548,928	-47,98	
1548,930	-47,69	
1548,932	-47,51	
1548,934	-47,38	
1548,936	-47,32	
1548,938	-47,37	
1548,940	-47,51	
1548,942	-47,65	
1548,944	-47,89	
1548,946	-48,17	
1548,948	-48,43	
1548,950	-48,68	
1548,952	-48,89	
1548,954	-49,04	
1548,956	-49,10	
1548,958	-49,10	
1548,960	-49,08	
1548,962	-48,97	
1548,964	-48,76	
1548,966	-48,43	
1548,968	-48,10	
1548,970	-47,77	
1548,972	-47,34	
1548,974	-46,80	
1548,976	-46,22	
1548,978	-45,72	
1548,980	-45,33	
1548,982	-44,98	
1548,984	-44,70	
1548,986	-44,56	
1548,988	-44,53	
1548,990	-44,61	
1548,992	-44,72	
1548,994	-44,93	
1548,996	-45,24	
1548,998	-45,55	
1549,000	-45,80	
1549,002	-46,04	
1549,004	-46,18	
1549,006	-46,27	
1549,008	-46,30	
1549,010	-46,25	
1549,012	-46,04	
1549,014	-45,79	
1549,016	-45,37	
1549,018	-44,98	
1549,020	-44,65	
1549,022	-44,34	
1549,024	-44,06	
1549,026	-43,84	
1549,028	-43,69	
1549,030	-43,55	
1549,032	-43,38	
1549,034	-43,21	
1549,036	-43,00	
1549,038	-42,80	
1549,040	-42,43	
1549,042	-42,01	
1549,044	-41,60	
1549,046	-41,19	
1549,048	-40,57	
1549,050	-39,91	
1549,052	-39,29	
1549,054	-38,50	
1549,056	-37,65	
1549,058	-36,83	
1549,060	-35,96	
1549,062	-35,18	
1549,064	-34,62	
1549,066	-34,10	
1549,068	-33,79	
1549,070	-33,55	
1549,072	-33,40	
1549,074	-33,30	
1549,076	-33,24	
1549,078	-33,21	
1549,080	-33,18	
1549,082	-33,12	
1549,084	-33,03	
1549,086	-32,89	
1549,088	-32,71	
1549,090	-32,51	
1549,092	-32,26	
1549,094	-32,02	
1549,096	-31,78	
1549,098	-31,54	
1549,100	-31,32	
1549,102	-31,06	
1549,104	-30,80	
1549,106	-30,60	
1549,108	-30,45	
1549,110	-30,28	
1549,112	-30,11	
1549,114	-29,99	
1549,116	-29,84	
1549,118	-29,68	
1549,120	-29,52	
1549,122	-29,35	
1549,124	-29,19	
1549,126	-29,04	
1549,128	-28,95	
1549,130	-28,81	
1549,132	-28,72	
1549,134	-28,65	
1549,136	-28,55	
1549,138	-28,52	
1549,140	-28,47	
1549,142	-28,43	
1549,144	-28,36	
1549,146	-28,32	
1549,148	-28,25	
1549,150	-28,14	
1549,152	-28,01	
1549,154	-27,80	
1549,156	-27,50	
1549,158	-27,17	
1549,160	-26,76	
1549,162	-26,28	
1549,164	-25,43	
1549,166	-24,25	
1549,168	-22,51	
1549,170	-21,36	
1549,172	-19,86	
1549,174	-18,55	
1549,176	-17,16	
1549,178	-15,58	
1549,180	-14,33	
1549,182	-13,07	
1549,184	-11,61	
1549,186	-10,52	
1549,188	-9,46	
1549,190	-8,43	
1549,192	-7,32	
1549,194	-6,32	
1549,196	-5,42	
1549,198	-4,18	
1549,200	-3,33	
1549,202	-2,60	
1549,204	-1,71	
1549,206	-0,80	
1549,208	-0,03	
1549,210	0,82	
1549,212	1,64	
1549,214	2,22	
1549,216	2,76	
1549,218	3,32	
1549,220	3,63	
1549,222	3,98	
1549,224	4,33	
1549,226	4,51	
1549,228	4,60	
1549,230	4,61	
1549,232	4,58	
1549,234	4,46	
1549,236	4,17	
1549,238	3,86	
1549,240	3,47	
1549,242	3,05	
1549,244	2,65	
1549,246	2,19	
1549,248	1,58	
1549,250	0,74	
1549,252	0,09	
1549,254	-0,56	
1549,256	-1,50	
1549,258	-2,13	
1549,260	-3,16	
1549,262	-3,75	
1549,264	-4,71	
1549,266	-5,67	
1549,268	-6,39	
1549,270	-7,71	
1549,272	-8,89	
1549,274	-9,94	
1549,276	-11,10	
1549,278	-12,29	
1549,280	-13,64	
1549,282	-15,10	
1549,284	-16,33	
1549,286	-17,91	
1549,288	-18,83	
1549,290	-20,17	
1549,292	-21,07	
1549,294	-21,78	
1549,296	-22,43	
1549,298	-23,03	
1549,300	-23,64	
1549,302	-24,12	
1549,304	-24,56	
1549,306	-25,10	
1549,308	-25,56	
1549,310	-26,01	
1549,312	-26,46	
1549,314	-26,87	
1549,316	-27,19	
1549,318	-27,42	
1549,320	-27,59	
1549,322	-27,67	
1549,324	-27,76	
1549,326	-27,81	
1549,328	-27,84	
1549,330	-27,90	
1549,332	-27,99	
1549,334	-28,09	
1549,336	-28,20	
1549,338	-28,33	
1549,340	-28,47	
1549,342	-28,65	
1549,344	-28,83	
1549,346	-28,98	
1549,348	-29,16	
1549,350	-29,37	
1549,352	-29,56	
1549,354	-29,74	
1549,356	-30,01	
1549,358	-30,21	
1549,360	-30,49	
1549,362	-30,78	
1549,364	-31,03	
1549,366	-31,32	
1549,368	-31,61	
1549,370	-31,84	
1549,372	-32,08	
1549,374	-32,39	
1549,376	-32,72	
1549,378	-32,95	
1549,380	-33,14	
1549,382	-33,35	
1549,384	-33,49	
1549,386	-33,66	
1549,388	-33,78	
1549,390	-33,97	
1549,392	-34,24	
1549,394	-34,51	
1549,396	-34,89	
1549,398	-35,21	
1549,400	-35,58	
1549,402	-36,10	
1549,404	-36,63	
1549,406	-37,11	
1549,408	-37,59	
1549,410	-37,99	
1549,412	-38,20	
1549,414	-38,45	
1549,416	-38,60	
1549,418	-38,71	
1549,420	-38,80	
1549,422	-38,89	
1549,424	-38,98	
1549,426	-39,08	
1549,428	-39,24	
1549,430	-39,43	
1549,432	-39,69	
1549,434	-40,00	
1549,436	-40,39	
1549,438	-40,90	
1549,440	-41,32	
1549,442	-41,69	
1549,444	-42,06	
1549,446	-42,50	
1549,448	-42,86	
1549,450	-43,17	
1549,452	-43,34	
1549,454	-43,45	
1549,456	-43,56	
1549,458	-43,64	
1549,460	-43,69	
1549,462	-43,73	
1549,464	-43,78	
1549,466	-43,87	
1549,468	-44,00	
1549,470	-44,09	
1549,472	-44,22	
1549,474	-44,39	
1549,476	-44,59	
1549,478	-44,74	
1549,480	-44,89	
1549,482	-45,07	
1549,484	-45,22	
1549,486	-45,37	
1549,488	-45,49	
1549,490	-45,57	
1549,492	-45,65	
1549,494	-45,74	
1549,496	-45,76	
1549,498	-45,73	
1549,500	-45,70	
1549,502	-45,63	
1549,504	-45,46	
1549,506	-45,32	
1549,508	-45,12	
1549,510	-44,98	
1549,512	-44,82	
1549,514	-44,70	
1549,516	-44,64	
1549,518	-44,63	
1549,520	-44,67	
1549,522	-44,77	
1549,524	-44,97	
1549,526	-45,25	
1549,528	-45,66	
1549,530	-45,89	
1549,532	-46,28	
1549,534	-46,58	
1549,536	-46,96	
1549,538	-47,23	
1549,540	-47,54	
1549,542	-47,88	
1549,544	-48,16	
1549,546	-48,33	
1549,548	-48,38	
1549,550	-48,46	
1549,552	-48,58	
1549,554	-48,63	
1549,556	-48,69	
1549,558	-48,73	
1549,560	-48,79	
1549,562	-48,85	
1549,564	-48,90	
1549,566	-48,92	
1549,568	-48,91	
1549,570	-48,86	
1549,572	-48,78	
1549,574	-48,59	
1549,576	-48,38	
1549,578	-48,15	
1549,580	-47,91	
1549,582	-47,69	
1549,584	-47,40	
1549,586	-47,18	
1549,588	-47,10	
1549,590	-47,08	
1549,592	-47,08	
1549,594	-47,18	
1549,596	-47,36	
1549,598	-47,57	
1549,600	-47,77	
1549,602	-48,02	
1549,604	-48,19	
1549,606	-48,35	
1549,608	-48,52	
1549,610	-48,61	
1549,612	-48,62	
1549,614	-48,57	
1549,616	-48,50	
1549,618	-48,46	
1549,620	-48,42	
1549,622	-48,42	
1549,624	-48,49	
1549,626	-48,58	
1549,628	-48,68	
1549,630	-48,88	
1549,632	-49,13	
1549,634	-49,39	
1549,636	-49,69	
1549,638	-49,84	
1549,640	-50,10	
1549,642	-50,28	
1549,644	-50,36	
1549,646	-50,44	
1549,648	-50,47	
1549,650	-50,45	
1549,652	-50,38	
1549,654	-50,33	
1549,656	-50,29	
1549,658	-50,21	
1549,660	-50,17	
1549,662	-50,11	
1549,664	-50,17	
1549,666	-50,35	
1549,668	-50,52	
1549,670	-50,60	
1549,672	-50,65	
1549,674	-50,74	
1549,676	-50,81	
1549,678	-50,80	
1549,680	-50,78	
1549,682	-50,86	
1549,684	-50,79	
1549,686	-50,81	
1549,688	-50,94	
1549,690	-51,07	
1549,692	-51,12	
1549,694	-51,38	
1549,696	-51,56	
1549,698	-51,49	
1549,700	-51,37	
1549,702	-51,34	
1549,704	-51,18	
1549,706	-51,16	
1549,708	-50,95	
1549,710	-50,85	
1549,712	-50,86	
1549,714	-50,94	
1549,716	-51,07	
1549,718	-51,26	
1549,720	-51,48	
1549,722	-51,88	
1549,724	-51,96	
1549,726	-52,18	
1549,728	-52,41	
1549,730	-52,51	
1549,732	-52,51	
1549,734	-52,51	
1549,736	-52,44	
1549,738	-52,18	
1549,740	-51,98	
1549,742	-51,92	
1549,744	-51,62	
1549,746	-51,49	
1549,748	-51,48	
1549,750	-51,47	
1549,752	-51,45	
1549,754	-51,59	
1549,756	-51,86	
1549,758	-52,05	
1549,760	-52,21	
1549,762	-52,37	
1549,764	-52,39	
1549,766	-52,27	
1549,768	-52,31	
1549,770	-52,01	
1549,772	-51,86	
1549,774	-51,71	
1549,776	-51,55	
1549,778	-51,47	
1549,780	-51,44	
1549,782	-51,41	
1549,784	-51,52	
1549,786	-51,61	
1549,788	-51,57	
1549,790	-51,64	
1549,792	-51,78	
1549,794	-52,05	
1549,796	-52,31	
1549,798	-52,53	
1549,800	-52,77	
1549,802	-53,02	
1549,804	-53,17	
1549,806	-53,14	
1549,808	-53,09	
1549,810	-52,97	
1549,812	-52,86	
1549,814	-52,74	
1549,816	-52,63	
1549,818	-52,46	
1549,820	-52,39	
1549,822	-52,37	
1549,824	-52,42	
1549,826	-52,54	
1549,828	-52,70	
1549,830	-52,82	
1549,832	-52,86	
1549,834	-52,89	
1549,836	-53,15	
1549,838	-53,05	
1549,840	-53,31	
1549,842	-53,38	
1549,844	-53,50	
1549,846	-53,66	
1549,848	-53,70	
1549,850	-53,77	
1549,852	-53,96	
1549,854	-54,05	
1549,856	-54,05	
1549,858	-54,04	
1549,860	-53,98	
1549,862	-53,88	
1549,864	-53,82	
1549,866	-53,69	
1549,868	-53,26	
1549,870	-53,14	
1549,872	-53,09	
1549,874	-52,99	
1549,876	-53,06	
1549,878	-53,07	
1549,880	-53,10	
1549,882	-53,16	
1549,884	-53,24	
1549,886	-53,36	
1549,888	-53,43	
1549,890	-53,44	
1549,892	-53,51	
1549,894	-53,49	
1549,896	-53,54	
1549,898	-53,35	
1549,900	-53,59	
1549,902	-53,68	
1549,904	-53,82	
1549,906	-54,04	
1549,908	-54,23	
1549,910	-54,29	
1549,912	-54,31	
1549,914	-54,32	
1549,916	-54,28	
1549,918	-54,31	
1549,920	-54,43	
1549,922	-54,28	
1549,924	-54,24	
1549,926	-54,19	
1549,928	-54,34	
1549,930	-54,36	
1549,932	-54,27	
1549,934	-54,14	
1549,936	-54,05	
1549,938	-53,97	
1549,940	-53,91	
1549,942	-53,95	
1549,944	-53,98	
1549,946	-53,97	
1549,948	-54,13	
1549,950	-54,32	
1549,952	-54,26	
1549,954	-54,53	
1549,956	-54,57	
1549,958	-54,62	
1549,960	-54,72	
1549,962	-54,71	
1549,964	-54,61	
1549,966	-54,43	
1549,968	-54,24	
1549,970	-54,25	
1549,972	-54,26	
1549,974	-54,12	
1549,976	-54,14	
1549,978	-54,13	
1549,980	-54,07	
1549,982	-54,25	
1549,984	-54,36	
1549,986	-54,35	
1549,988	-54,34	
1549,990	-54,36	
1549,992	-54,36	
1549,994	-54,39	
1549,996	-54,50	
1549,998	-54,44	
1550,000	-54,63	
1550,002	-54,62	
1550,004	-54,37	
1550,006	-54,44	
1550,008	-54,44	
1550,010	-54,50	
1550,012	-54,42	
1550,014	-54,54	
1550,016	-54,50	
1550,018	-54,54	
1550,020	-54,62	
1550,022	-54,70	
1550,024	-54,72	
1550,026	-54,62	
1550,028	-54,88	
1550,030	-54,81	
1550,032	-54,89	
1550,034	-54,81	
1550,036	-54,80	
1550,038	-54,72	
1550,040	-54,72	
1550,042	-54,67	
1550,044	-54,62	
1550,046	-54,52	
1550,048	-54,46	
1550,050	-54,42	
1550,052	-54,58	
1550,054	-54,72	
1550,056	-54,54	
1550,058	-54,46	
1550,060	-54,42	
1550,062	-54,23	
1550,064	-54,22	
1550,066	-53,99	
1550,068	-53,91	
1550,070	-53,89	
1550,072	-53,97	
1550,074	-53,92	
1550,076	-54,02	
1550,078	-54,17	
1550,080	-54,04	
1550,082	-54,01	
1550,084	-54,16	
1550,086	-54,31	
1550,088	-54,54	
1550,090	-54,71	
1550,092	-54,86	
1550,094	-55,00	
1550,096	-55,10	
1550,098	-55,11	
1550,100	-55,16	
1550,102	-55,18	
1550,104	-54,83	
1550,106	-54,68	
1550,108	-54,63	
1550,110	-54,28	
1550,112	-54,41	
1550,114	-54,39	
1550,116	-54,20	
1550,118	-54,38	
1550,120	-54,17	
1550,122	-54,27	
1550,124	-54,51	
1550,126	-54,33	
1550,128	-54,31	
1550,130	-54,43	
1550,132	-54,68	
1550,134	-54,59	
1550,136	-54,58	
1550,138	-54,64	
1550,140	-54,36	
1550,142	-54,21	
1550,144	-54,23	
1550,146	-54,14	
1550,148	-53,95	
1550,150	-53,84	
1550,152	-53,94	
1550,154	-53,83	
1550,156	-54,01	
1550,158	-54,12	
1550,160	-54,05	
1550,162	-54,18	
1550,164	-54,19	
1550,166	-54,21	
1550,168	-54,22	
1550,170	-54,35	
1550,172	-54,38	
1550,174	-54,40	
1550,176	-54,18	
1550,178	-54,31	
1550,180	-54,26	
1550,182	-54,15	
1550,184	-54,21	
1550,186	-54,28	
1550,188	-54,46	
1550,190	-54,78	
1550,192	-54,90	
1550,194	-54,94	
1550,196	-54,85	
1550,198	-55,29	
1550,200	-55,27	
1550,202	-55,29	
1550,204	-55,19	
1550,206	-55,22	
1550,208	-54,91	
1550,210	-54,66	
1550,212	-54,57	
1550,214	-54,48	
1550,216	-54,46	
1550,218	-54,56	
1550,220	-54,62	
1550,222	-54,70	
1550,224	-54,77	
1550,226	-54,91	
1550,228	-54,77	
1550,230	-54,76	
1550,232	-54,71	
1550,234	-55,04	
1550,236	-55,12	
1550,238	-54,87	
1550,240	-55,08	
1550,242	-55,11	
1550,244	-55,11	
1550,246	-55,14	
1550,248	-55,16	
1550,250	-55,07	
1550,252	-54,95	
1550,254	-54,96	
1550,256	-54,91	
1550,258	-54,79	
1550,260	-54,54	
1550,262	-54,65	
1550,264	-54,69	
1550,266	-54,41	
1550,268	-54,46	
1550,270	-54,42	
1550,272	-54,24	
1550,274	-54,14	
1550,276	-53,91	
1550,278	-53,95	
1550,280	-54,17	
1550,282	-54,36	
1550,284	-54,37	
1550,286	-54,26	
1550,288	-54,22	
1550,290	-54,23	
1550,292	-54,18	
1550,294	-54,31	
1550,296	-54,09	
1550,298	-54,19	
1550,300	-54,12	
1550,302	-54,22	
1550,304	-54,20	
1550,306	-54,42	
1550,308	-54,34	
1550,310	-54,49	
1550,312	-54,47	
1550,314	-54,48	
1550,316	-54,56	
1550,318	-54,58	
1550,320	-54,51	
1550,322	-54,42	
1550,324	-54,50	
1550,326	-54,51	
1550,328	-54,37	
1550,330	-54,23	
1550,332	-54,29	
1550,334	-54,29	
1550,336	-54,37	
1550,338	-54,07	
1550,340	-54,18	
1550,342	-54,07	
1550,344	-54,22	
1550,346	-54,32	
1550,348	-54,36	
1550,350	-54,37	
1550,352	-54,30	
1550,354	-54,37	
1550,356	-54,46	
1550,358	-54,56	
1550,360	-54,63	
1550,362	-54,71	
1550,364	-54,84	
1550,366	-54,79	
1550,368	-54,73	
1550,370	-54,73	
1550,372	-54,73	
1550,374	-54,61	
1550,376	-54,61	
1550,378	-54,40	
1550,380	-54,13	
1550,382	-54,33	
1550,384	-54,16	
1550,386	-53,99	
1550,388	-54,07	
1550,390	-54,21	
1550,392	-54,19	
1550,394	-54,14	
1550,396	-54,02	
1550,398	-54,28	
1550,400	-54,52	
1550,402	-54,57	
1550,404	-54,48	
1550,406	-54,52	
1550,408	-54,66	
1550,410	-54,62	
1550,412	-54,58	
1550,414	-54,68	
1550,416	-54,76	
1550,418	-54,70	
1550,420	-54,59	
1550,422	-54,68	
1550,424	-54,83	
1550,426	-54,63	
1550,428	-54,60	
1550,430	-54,75	
1550,432	-54,88	
1550,434	-54,61	
1550,436	-54,44	
1550,438	-54,57	
1550,440	-54,39	
1550,442	-54,28	
1550,444	-54,30	
1550,446	-54,42	
1550,448	-54,47	
1550,450	-54,52	
1550,452	-54,45	
1550,454	-54,46	
1550,456	-54,50	
1550,458	-54,42	
1550,460	-54,28	
1550,462	-54,23	
1550,464	-54,29	
1550,466	-54,18	
1550,468	-54,12	
1550,470	-54,26	
1550,472	-54,05	
1550,474	-53,89	
1550,476	-53,86	
1550,478	-53,71	
1550,480	-53,73	
1550,482	-53,75	
1550,484	-53,73	
1550,486	-53,69	
1550,488	-53,69	
1550,490	-53,82	
1550,492	-53,97	
1550,494	-53,91	
1550,496	-54,06	
1550,498	-53,95	
1550,500	-53,90	
1550,502	-53,94	
1550,504	-53,82	
1550,506	-54,08	
1550,508	-54,02	
1550,510	-54,09	
1550,512	-54,17	
1550,514	-54,03	
1550,516	-53,95	
1550,518	-53,99	
1550,520	-53,91	
1550,522	-54,02	
1550,524	-53,99	
1550,526	-53,97	
1550,528	-53,79	
1550,530	-53,84	
1550,532	-53,87	
1550,534	-53,85	
1550,536	-53,77	
1550,538	-53,73	
1550,540	-53,73	
1550,542	-53,67	
1550,544	-53,56	
1550,546	-53,56	
1550,548	-53,62	
1550,550	-53,46	
1550,552	-53,58	
1550,554	-53,33	
1550,556	-53,41	
1550,558	-53,43	
1550,560	-53,40	
1550,562	-53,41	
1550,564	-53,57	
1550,566	-53,70	
1550,568	-53,64	
1550,570	-53,63	
1550,572	-53,84	
1550,574	-53,92	
1550,576	-53,96	
1550,578	-53,91	
1550,580	-53,97	
1550,582	-53,60	
1550,584	-53,70	
1550,586	-53,59	
1550,588	-53,41	
1550,590	-53,31	
1550,592	-53,23	
1550,594	-53,13	
1550,596	-53,05	
1550,598	-52,99	
1550,600	-53,03	
1550,602	-53,02	
1550,604	-52,96	
1550,606	-53,03	
1550,608	-53,05	
1550,610	-53,15	
1550,612	-53,24	
1550,614	-53,36	
1550,616	-53,51	
1550,618	-53,48	
1550,620	-53,34	
1550,622	-53,58	
1550,624	-53,52	
1550,626	-53,51	
1550,628	-53,54	
1550,630	-53,49	
1550,632	-53,52	
1550,634	-53,56	
1550,636	-53,48	
1550,638	-53,38	
1550,640	-53,38	
1550,642	-53,29	
1550,644	-53,21	
1550,646	-53,39	
1550,648	-53,15	
1550,650	-53,14	
1550,652	-53,14	
1550,654	-53,05	
1550,656	-52,95	
1550,658	-52,96	
1550,660	-52,98	
1550,662	-52,93	
1550,664	-52,99	
1550,666	-53,04	
1550,668	-52,99	
1550,670	-52,90	
1550,672	-53,04	
1550,674	-52,86	
1550,676	-52,88	
1550,678	-52,98	
1550,680	-53,03	
1550,682	-53,07	
1550,684	-53,11	
1550,686	-53,05	
1550,688	-52,98	
1550,690	-52,95	
1550,692	-52,81	
1550,694	-52,80	
1550,696	-52,70	
1550,698	-52,72	
1550,700	-52,64	
1550,702	-52,65	
1550,704	-52,75	
1550,706	-52,69	
1550,708	-52,61	
1550,710	-52,60	
1550,712	-52,61	
1550,714	-52,65	
1550,716	-52,72	
1550,718	-52,81	
1550,720	-52,75	
1550,722	-52,72	
1550,724	-52,61	
1550,726	-52,58	
1550,728	-52,64	
1550,730	-52,70	
1550,732	-52,67	
1550,734	-52,56	
1550,736	-52,41	
1550,738	-52,34	
1550,740	-52,36	
1550,742	-52,34	
1550,744	-52,17	
1550,746	-52,12	
1550,748	-52,07	
1550,750	-52,03	
1550,752	-51,96	
1550,754	-51,93	
1550,756	-51,95	
1550,758	-51,95	
1550,760	-51,96	
1550,762	-51,96	
1550,764	-51,96	
1550,766	-51,94	
1550,768	-51,92	
1550,770	-51,92	
1550,772	-52,01	
1550,774	-52,00	
1550,776	-51,98	
1550,778	-51,92	
1550,780	-52,00	
1550,782	-52,10	
1550,784	-52,08	
1550,786	-52,03	
1550,788	-52,09	
1550,790	-52,10	
1550,792	-51,96	
1550,794	-51,89	
1550,796	-51,92	
1550,798	-52,00	
1550,800	-51,86	
1550,802	-51,77	
1550,804	-51,72	
1550,806	-51,64	
1550,808	-51,63	
1550,810	-51,75	
1550,812	-51,69	
1550,814	-51,61	
1550,816	-51,50	
1550,818	-51,53	
1550,820	-51,52	
1550,822	-51,54	
1550,824	-51,49	
1550,826	-51,40	
1550,828	-51,37	
1550,830	-51,37	
1550,832	-51,33	
1550,834	-51,39	
1550,836	-51,35	
1550,838	-51,32	
1550,840	-51,27	
1550,842	-51,22	
1550,844	-51,21	
1550,846	-51,21	
1550,848	-51,21	
1550,850	-51,23	
1550,852	-51,24	
1550,854	-51,11	
1550,856	-51,22	
1550,858	-51,13	
1550,860	-51,04	
1550,862	-51,04	
1550,864	-51,00	
1550,866	-51,01	
1550,868	-51,04	
1550,870	-51,00	
1550,872	-51,00	
1550,874	-51,02	
1550,876	-50,90	
1550,878	-50,88	
1550,880	-50,82	
1550,882	-50,80	
1550,884	-50,73	
1550,886	-50,72	
1550,888	-50,73	
1550,890	-50,66	
1550,892	-50,61	
1550,894	-50,64	
1550,896	-50,54	
1550,898	-50,47	
1550,900	-50,55	
1550,902	-50,45	
1550,904	-50,40	
1550,906	-50,37	
1550,908	-50,34	
1550,910	-50,30	
1550,912	-50,29	
1550,914	-50,32	
1550,916	-50,31	
1550,918	-50,26	
1550,920	-50,33	
1550,922	-50,25	
1550,924	-50,23	
1550,926	-50,17	
1550,928	-50,14	
1550,930	-50,14	
1550,932	-50,10	
1550,934	-50,07	
1550,936	-50,09	
1550,938	-50,03	
1550,940	-49,95	
1550,942	-49,97	
1550,944	-49,88	
1550,946	-49,88	
1550,948	-49,87	
1550,950	-49,84	
1550,952	-49,80	
1550,954	-49,75	
1550,956	-49,74	
1550,958	-49,76	
1550,960	-49,77	
1550,962	-49,70	
1550,964	-49,65	
1550,966	-49,68	
1550,968	-49,66	
1550,970	-49,61	
1550,972	-49,60	
1550,974	-49,58	
1550,976	-49,50	
1550,978	-49,49	
1550,980	-49,47	
1550,982	-49,43	
1550,984	-49,41	
1550,986	-49,39	
1550,988	-49,36	
1550,990	-49,32	
1550,992	-49,27	
1550,994	-49,23	
1550,996	-49,20	
1550,998	-49,17	
1551,000	-49,06	
1551,002	-49,05	
1551,004	-49,04	
1551,006	-48,97	
1551,008	-48,91	
1551,010	-48,91	
1551,012	-48,91	
1551,014	-48,85	
1551,016	-48,80	
1551,018	-48,83	
1551,020	-48,79	
1551,022	-48,76	
1551,024	-48,75	
1551,026	-48,74	
1551,028	-48,73	
1551,030	-48,70	
1551,032	-48,68	
1551,034	-48,65	
1551,036	-48,60	
1551,038	-48,59	
1551,040	-48,57	
1551,042	-48,51	
1551,044	-48,57	
1551,046	-48,43	
1551,048	-48,45	
1551,050	-48,44	
1551,052	-48,36	
1551,054	-48,35	
1551,056	-48,34	
1551,058	-48,30	
1551,060	-48,24	
1551,062	-48,20	
1551,064	-48,19	
1551,066	-48,17	
1551,068	-48,13	
1551,070	-48,12	
1551,072	-48,08	
1551,074	-48,13	
1551,076	-48,11	
1551,078	-48,05	
1551,080	-48,02	
1551,082	-48,03	
1551,084	-48,03	
1551,086	-48,00	
1551,088	-47,98	
1551,090	-47,95	
1551,092	-47,89	
1551,094	-47,86	
1551,096	-47,88	
1551,098	-47,76	
1551,100	-47,77	
1551,102	-47,72	
1551,104	-47,69	
1551,106	-47,65	
1551,108	-47,61	
1551,110	-47,60	
1551,112	-47,59	
1551,114	-47,55	
1551,116	-47,50	
1551,118	-47,52	
1551,120	-47,51	
1551,122	-47,49	
1551,124	-47,50	
1551,126	-47,48	
1551,128	-47,48	
1551,130	-47,47	
1551,132	-47,43	
1551,134	-47,42	
1551,136	-47,43	
1551,138	-47,38	
1551,140	-47,33	
1551,142	-47,34	
1551,144	-47,31	
1551,146	-47,32	
1551,148	-47,32	
1551,150	-47,30	
1551,152	-47,27	
1551,154	-47,25	
1551,156	-47,24	
1551,158	-47,18	
1551,160	-47,17	
1551,162	-47,13	
1551,164	-47,11	
1551,166	-47,10	
1551,168	-47,10	
1551,170	-47,10	
1551,172	-47,09	
1551,174	-47,08	
1551,176	-47,09	
1551,178	-47,03	
1551,180	-47,03	
1551,182	-47,03	
1551,184	-47,00	
1551,186	-46,94	
1551,188	-46,95	
1551,190	-46,93	
1551,192	-46,91	
1551,194	-46,89	
1551,196	-46,90	
1551,198	-46,91	
1551,200	-46,89	
1551,202	-46,92	
1551,204	-46,89	
1551,206	-46,84	
1551,208	-46,84	
1551,210	-46,84	
1551,212	-46,83	
1551,214	-46,84	
1551,216	-46,81	
1551,218	-46,82	
1551,220	-46,82	
1551,222	-46,81	
1551,224	-46,81	
1551,226	-46,82	
1551,228	-46,82	
1551,230	-46,78	
1551,232	-46,80	
1551,234	-46,79	
1551,236	-46,73	
1551,238	-46,78	
1551,240	-46,78	
1551,242	-46,72	
1551,244	-46,73	
1551,246	-46,71	
1551,248	-46,73	
1551,250	-46,73	
1551,252	-46,73	
1551,254	-46,75	
1551,256	-46,77	
1551,258	-46,77	
1551,260	-46,75	
1551,262	-46,76	
1551,264	-46,76	
1551,266	-46,75	
1551,268	-46,76	
1551,270	-46,75	
1551,272	-46,78	
1551,274	-46,77	
1551,276	-46,78	
1551,278	-46,78	
1551,280	-46,78	
1551,282	-46,81	
1551,284	-46,84	
1551,286	-46,82	
1551,288	-46,82	
1551,290	-46,83	
1551,292	-46,82	
1551,294	-46,80	
1551,296	-46,82	
1551,298	-46,85	
1551,300	-46,84	
1551,302	-46,82	
1551,304	-46,81	
1551,306	-46,83	
1551,308	-46,87	
1551,310	-46,88	
1551,312	-46,87	
1551,314	-46,86	
1551,316	-46,91	
1551,318	-46,89	
1551,320	-46,91	
1551,322	-46,92	
1551,324	-46,93	
1551,326	-46,94	
1551,328	-46,96	
1551,330	-46,99	
1551,332	-47,00	
1551,334	-47,01	
1551,336	-47,05	
1551,338	-47,09	
1551,340	-47,10	
1551,342	-47,12	
1551,344	-47,15	
1551,346	-47,12	
1551,348	-47,12	
1551,350	-47,14	
1551,352	-47,14	
1551,354	-47,23	
1551,356	-47,21	
1551,358	-47,22	
1551,360	-47,28	
1551,362	-47,24	
1551,364	-47,24	
1551,366	-47,33	
1551,368	-47,35	
1551,370	-47,35	
1551,372	-47,36	
1551,374	-47,39	
1551,376	-47,42	
1551,378	-47,45	
1551,380	-47,47	
1551,382	-47,46	
1551,384	-47,50	
1551,386	-47,54	
1551,388	-47,54	
1551,390	-47,57	
1551,392	-47,60	
1551,394	-47,60	
1551,396	-47,63	
1551,398	-47,65	
1551,400	-47,73	
1551,402	-47,69	
1551,404	-47,73	
1551,406	-47,80	
1551,408	-47,77	
1551,410	-47,78	
1551,412	-47,84	
1551,414	-47,87	
1551,416	-47,86	
1551,418	-47,88	
1551,420	-47,90	
1551,422	-47,91	
1551,424	-47,95	
1551,426	-47,99	
1551,428	-47,98	
1551,430	-48,00	
1551,432	-48,00	
1551,434	-48,05	
1551,436	-48,07	
1551,438	-48,16	
1551,440	-48,17	
1551,442	-48,18	
1551,444	-48,15	
1551,446	-48,18	
1551,448	-48,22	
1551,450	-48,28	
1551,452	-48,32	
1551,454	-48,33	
1551,456	-48,35	
1551,458	-48,34	
1551,460	-48,37	
1551,462	-48,38	
1551,464	-48,42	
1551,466	-48,48	
1551,468	-48,47	
1551,470	-48,47	
1551,472	-48,50	
1551,474	-48,52	
1551,476	-48,53	
1551,478	-48,53	
1551,480	-48,56	
1551,482	-48,62	
1551,484	-48,63	
1551,486	-48,66	
1551,488	-48,66	
1551,490	-48,68	
1551,492	-48,72	
1551,494	-48,74	
1551,496	-48,74	
1551,498	-48,76	
1551,500	-48,83	
1551,502	-48,89	
1551,504	-48,92	
1551,506	-48,94	
1551,508	-48,98	
1551,510	-48,92	
1551,512	-48,98	
1551,514	-48,98	
1551,516	-48,99	
1551,518	-49,04	
1551,520	-49,10	
1551,522	-49,13	
1551,524	-49,15	
1551,526	-49,17	
1551,528	-49,16	
1551,530	-49,16	
1551,532	-49,21	
1551,534	-49,22	
1551,536	-49,28	
1551,538	-49,33	
1551,540	-49,33	
1551,542	-49,34	
1551,544	-49,38	
1551,546	-49,41	
1551,548	-49,36	
1551,550	-49,47	
1551,552	-49,44	
1551,554	-49,50	
1551,556	-49,52	
1551,558	-49,56	
1551,560	-49,53	
1551,562	-49,57	
1551,564	-49,62	
1551,566	-49,61	
1551,568	-49,59	
1551,570	-49,61	
1551,572	-49,66	
1551,574	-49,67	
1551,576	-49,66	
1551,578	-49,69	
1551,580	-49,65	
1551,582	-49,70	
1551,584	-49,76	
1551,586	-49,80	
1551,588	-49,84	
1551,590	-49,79	
1551,592	-49,83	
1551,594	-49,85	
1551,596	-49,92	
1551,598	-49,97	
1551,600	-49,95	
1551,602	-49,94	
1551,604	-49,91	
1551,606	-49,96	
1551,608	-49,99	
1551,610	-50,01	
1551,612	-50,05	
1551,614	-50,10	
1551,616	-50,14	
1551,618	-50,15	
1551,620	-50,13	
1551,622	-50,10	
1551,624	-50,10	
1551,626	-50,13	
1551,628	-50,17	
1551,630	-50,17	
1551,632	-50,19	
1551,634	-50,22	
1551,636	-50,20	
1551,638	-50,29	
1551,640	-50,33	
1551,642	-50,34	
1551,644	-50,37	
1551,646	-50,38	
1551,648	-50,38	
1551,650	-50,43	
1551,652	-50,40	
1551,654	-50,40	
1551,656	-50,41	
1551,658	-50,46	
1551,660	-50,52	
1551,662	-50,57	
1551,664	-50,58	
1551,666	-50,56	
1551,668	-50,62	
1551,670	-50,65	
1551,672	-50,70	
1551,674	-50,77	
1551,676	-50,74	
1551,678	-50,78	
1551,680	-50,79	
1551,682	-50,87	
1551,684	-50,88	
1551,686	-50,86	
1551,688	-50,88	
1551,690	-50,94	
1551,692	-50,94	
1551,694	-50,90	
1551,696	-50,87	
1551,698	-50,91	
1551,700	-50,98	
1551,702	-50,92	
1551,704	-51,01	
1551,706	-51,01	
1551,708	-51,01	
1551,710	-51,02	
1551,712	-50,98	
1551,714	-51,06	
1551,716	-51,05	
1551,718	-51,08	
1551,720	-51,13	
1551,722	-51,09	
1551,724	-51,12	
1551,726	-51,22	
1551,728	-51,24	
1551,730	-51,24	
1551,732	-51,21	
1551,734	-51,28	
1551,736	-51,16	
1551,738	-51,22	
1551,740	-51,25	
1551,742	-51,21	
1551,744	-51,24	
1551,746	-51,27	
1551,748	-51,27	
1551,750	-51,32	
1551,752	-51,35	
1551,754	-51,30	
1551,756	-51,34	
1551,758	-51,45	
1551,760	-51,39	
1551,762	-51,50	
1551,764	-51,57	
1551,766	-51,52	
1551,768	-51,48	
1551,770	-51,46	
1551,772	-51,44	
1551,774	-51,47	
1551,776	-51,46	
1551,778	-51,46	
1551,780	-51,46	
1551,782	-51,38	
1551,784	-51,42	
1551,786	-51,52	
1551,788	-51,38	
1551,790	-51,34	
1551,792	-51,46	
1551,794	-51,50	
1551,796	-51,48	
1551,798	-51,64	
1551,800	-51,67	
1551,802	-51,65	
1551,804	-51,66	
1551,806	-51,67	
1551,808	-51,66	
1551,810	-51,66	
1551,812	-51,72	
1551,814	-51,72	
1551,816	-51,83	
1551,818	-51,90	
1551,820	-51,79	
1551,822	-51,72	
1551,824	-51,71	
1551,826	-51,74	
1551,828	-51,72	
1551,830	-51,78	
1551,832	-51,83	
1551,834	-51,83	
1551,836	-51,90	
1551,838	-51,86	
1551,840	-51,81	
1551,842	-51,83	
1551,844	-51,82	
1551,846	-51,87	
1551,848	-51,77	
1551,850	-51,85	
1551,852	-51,87	
1551,854	-51,86	
1551,856	-51,83	
1551,858	-51,84	
1551,860	-51,90	
1551,862	-51,89	
1551,864	-51,81	
1551,866	-51,87	
1551,868	-51,87	
1551,870	-51,87	
1551,872	-51,92	
1551,874	-52,07	
1551,876	-51,94	
1551,878	-52,01	
1551,880	-52,07	
1551,882	-51,97	
1551,884	-51,92	
1551,886	-51,98	
1551,888	-52,05	
1551,890	-52,12	
1551,892	-52,18	
1551,894	-52,18	
1551,896	-52,21	
1551,898	-52,11	
1551,900	-52,11	
1551,902	-52,08	
1551,904	-52,04	
1551,906	-52,05	
1551,908	-52,08	
1551,910	-52,07	
1551,912	-52,08	
1551,914	-52,06	
1551,916	-52,08	
1551,918	-52,19	
1551,920	-52,22	
1551,922	-52,24	
1551,924	-52,21	
1551,926	-52,15	
1551,928	-52,14	
1551,930	-52,16	
1551,932	-52,25	
1551,934	-52,28	
1551,936	-52,25	
1551,938	-52,23	
1551,940	-52,23	
1551,942	-52,23	
1551,944	-52,27	
1551,946	-52,35	
1551,948	-52,38	
1551,950	-52,30	
1551,952	-52,18	
1551,954	-52,27	
1551,956	-52,28	
1551,958	-52,19	
1551,960	-52,25	
1551,962	-52,28	
1551,964	-52,27	
1551,966	-52,30	
1551,968	-52,28	
1551,970	-52,30	
1551,972	-52,25	
1551,974	-52,35	
1551,976	-52,34	
1551,978	-52,32	
1551,980	-52,31	
1551,982	-52,28	
1551,984	-52,29	
1551,986	-52,30	
1551,988	-52,29	
1551,990	-52,32	
1551,992	-52,31	
1551,994	-52,33	
1551,996	-52,37	
1551,998	-52,44	
1552,000	-52,45	
1552,002	-52,36	
1552,004	-52,38	
1552,006	-52,41	
1552,008	-52,34	
1552,010	-52,34	
1552,012	-52,40	
1552,014	-52,28	
1552,016	-52,36	
1552,018	-52,25	
1552,020	-52,13	
1552,022	-52,24	
1552,024	-52,33	
1552,026	-52,36	
1552,028	-52,37	
1552,030	-52,40	
1552,032	-52,38	
1552,034	-52,33	
1552,036	-52,50	
1552,038	-52,28	
1552,040	-52,28	
1552,042	-52,31	
1552,044	-52,30	
1552,046	-52,39	
1552,048	-52,36	
1552,050	-52,30	
1552,052	-52,37	
1552,054	-52,40	
1552,056	-52,28	
1552,058	-52,13	
1552,060	-52,22	
1552,062	-52,17	
1552,064	-52,23	
1552,066	-52,05	
1552,068	-52,22	
1552,070	-52,33	
1552,072	-52,24	
1552,074	-52,27	
1552,076	-52,36	
1552,078	-52,33	
1552,080	-52,35	
1552,082	-52,33	
1552,084	-52,21	
1552,086	-52,42	
1552,088	-52,31	
1552,090	-52,46	
1552,092	-52,45	
1552,094	-52,40	
1552,096	-52,42	
1552,098	-52,43	
1552,100	-52,37	
1552,102	-52,28	
1552,104	-52,26	
1552,106	-52,33	
1552,108	-52,39	
1552,110	-52,47	
1552,112	-52,40	
1552,114	-52,32	
1552,116	-52,32	
1552,118	-52,37	
1552,120	-52,38	
1552,122	-52,36	
1552,124	-52,35	
1552,126	-52,26	
1552,128	-52,18	
1552,130	-52,20	
1552,132	-52,20	
1552,134	-52,33	
1552,136	-52,26	
1552,138	-52,28	
1552,140	-52,31	
1552,142	-52,26	
1552,144	-52,22	
1552,146	-52,31	
1552,148	-52,36	
1552,150	-52,30	
1552,152	-52,31	
1552,154	-52,38	
1552,156	-52,40	
1552,158	-52,12	
1552,160	-52,29	
1552,162	-52,29	
1552,164	-52,14	
1552,166	-52,22	
1552,168	-52,14	
1552,170	-52,05	
1552,172	-52,12	
1552,174	-52,17	
1552,176	-52,08	
1552,178	-52,10	
1552,180	-52,20	
1552,182	-52,20	
1552,184	-52,12	
1552,186	-52,12	
1552,188	-52,02	
1552,190	-52,07	
1552,192	-52,13	
1552,194	-52,19	
1552,196	-52,20	
1552,198	-52,19	
1552,200	-52,19	
1552,202	-52,19	
1552,204	-52,16	
1552,206	-52,11	
1552,208	-52,08	
1552,210	-52,24	
1552,212	-52,15	
1552,214	-52,15	
1552,216	-52,24	
1552,218	-52,18	
1552,220	-52,25	
1552,222	-52,27	
1552,224	-52,22	
1552,226	-52,16	
1552,228	-52,09	
1552,230	-52,03	
1552,232	-52,02	
1552,234	-51,93	
1552,236	-51,92	
1552,238	-51,86	
1552,240	-51,97	
1552,242	-51,96	
1552,244	-51,94	
1552,246	-52,02	
1552,248	-52,04	
1552,250	-52,06	
1552,252	-52,01	
1552,254	-51,93	
1552,256	-52,01	
1552,258	-52,12	
1552,260	-52,06	
1552,262	-52,01	
1552,264	-52,07	
1552,266	-52,06	
1552,268	-52,11	
1552,270	-52,07	
1552,272	-51,94	
1552,274	-51,94	
1552,276	-51,94	
1552,278	-51,93	
1552,280	-51,94	
1552,282	-51,91	
1552,284	-51,92	
1552,286	-51,89	
1552,288	-51,83	
1552,290	-51,84	
1552,292	-51,85	
1552,294	-51,83	
1552,296	-51,85	
1552,298	-51,88	
1552,300	-51,67	
1552,302	-51,63	
1552,304	-51,69	
1552,306	-51,80	
1552,308	-51,75	
1552,310	-51,68	
1552,312	-51,70	
1552,314	-51,66	
1552,316	-51,61	
1552,318	-51,62	
1552,320	-51,64	
1552,322	-51,63	
1552,324	-51,61	
1552,326	-51,55	
1552,328	-51,51	
1552,330	-51,50	
1552,332	-51,58	
1552,334	-51,62	
1552,336	-51,57	
1552,338	-51,62	
1552,340	-51,55	
1552,342	-51,48	
1552,344	-51,51	
1552,346	-51,50	
1552,348	-51,54	
1552,350	-51,60	
1552,352	-51,59	
1552,354	-51,54	
1552,356	-51,54	
1552,358	-51,55	
1552,360	-51,52	
1552,362	-51,57	
1552,364	-51,58	
1552,366	-51,47	
1552,368	-51,54	
1552,370	-51,53	
1552,372	-51,47	
1552,374	-51,40	
1552,376	-51,47	
1552,378	-51,36	
1552,380	-51,39	
1552,382	-51,41	
1552,384	-51,42	
1552,386	-51,31	
1552,388	-51,37	
1552,390	-51,29	
1552,392	-51,32	
1552,394	-51,30	
1552,396	-51,29	
1552,398	-51,29	
1552,400	-51,29	
1552,402	-51,28	
1552,404	-51,25	
1552,406	-51,22	
1552,408	-51,19	
1552,410	-51,20	
1552,412	-51,10	
1552,414	-51,20	
1552,416	-51,10	
1552,418	-51,20	
1552,420	-51,08	
1552,422	-51,11	
1552,424	-51,13	
1552,426	-51,13	
1552,428	-51,14	
1552,430	-51,14	
1552,432	-51,09	
1552,434	-51,05	
1552,436	-51,05	
1552,438	-51,04	
1552,440	-50,96	
1552,442	-50,88	
1552,444	-50,92	
1552,446	-50,92	
1552,448	-50,89	
1552,450	-50,95	
1552,452	-50,86	
1552,454	-50,91	
1552,456	-50,86	
1552,458	-50,85	
1552,460	-50,89	
1552,462	-50,90	
1552,464	-50,90	
1552,466	-50,85	
1552,468	-50,79	
1552,470	-50,77	
1552,472	-50,75	
1552,474	-50,75	
1552,476	-50,77	
1552,478	-50,76	
1552,480	-50,75	
1552,482	-50,67	
1552,484	-50,59	
1552,486	-50,61	
1552,488	-50,56	
1552,490	-50,53	
1552,492	-50,47	
1552,494	-50,49	
1552,496	-50,53	
1552,498	-50,54	
1552,500	-50,49	
1552,502	-50,41	
1552,504	-50,56	
1552,506	-50,53	
1552,508	-50,52	
1552,510	-50,46	
1552,512	-50,38	
1552,514	-50,36	
1552,516	-50,38	
1552,518	-50,38	
1552,520	-50,35	
1552,522	-50,33	
1552,524	-50,32	
1552,526	-50,30	
1552,528	-50,26	
1552,530	-50,25	
1552,532	-50,22	
1552,534	-50,14	
1552,536	-50,17	
1552,538	-50,16	
1552,540	-50,19	
1552,542	-50,17	
1552,544	-50,18	
1552,546	-50,17	
1552,548	-50,11	
1552,550	-50,08	
1552,552	-50,07	
1552,554	-50,06	
1552,556	-50,04	
1552,558	-50,01	
1552,560	-50,03	
1552,562	-50,02	
1552,564	-49,99	
1552,566	-49,94	
1552,568	-49,93	
1552,570	-49,86	
1552,572	-49,83	
1552,574	-49,86	
1552,576	-49,86	
1552,578	-49,78	
1552,580	-49,80	
1552,582	-49,81	
1552,584	-49,74	
1552,586	-49,71	
1552,588	-49,72	
1552,590	-49,70	
1552,592	-49,70	
1552,594	-49,72	
1552,596	-49,66	
1552,598	-49,67	
1552,600	-49,70	
1552,602	-49,67	
1552,604	-49,63	
1552,606	-49,60	
1552,608	-49,60	
1552,610	-49,55	
1552,612	-49,54	
1552,614	-49,55	
1552,616	-49,55	
1552,618	-49,49	
1552,620	-49,48	
1552,622	-49,49	
1552,624	-49,45	
1552,626	-49,43	
1552,628	-49,36	
1552,630	-49,37	
1552,632	-49,32	
1552,634	-49,37	
1552,636	-49,30	
1552,638	-49,27	
1552,640	-49,25	
1552,642	-49,29	
1552,644	-49,27	
1552,646	-49,20	
1552,648	-49,16	
1552,650	-49,14	
1552,652	-49,12	
1552,654	-49,13	
1552,656	-49,13	
1552,658	-49,13	
1552,660	-49,09	
1552,662	-49,07	
1552,664	-49,03	
1552,666	-49,04	
1552,668	-49,05	
1552,670	-49,03	
1552,672	-48,97	
1552,674	-48,95	
1552,676	-48,98	
1552,678	-48,97	
1552,680	-48,90	
1552,682	-48,86	
1552,684	-48,82	
1552,686	-48,84	
1552,688	-48,86	
1552,690	-48,83	
1552,692	-48,74	
1552,694	-48,73	
1552,696	-48,76	
1552,698	-48,77	
1552,700	-48,76	
1552,702	-48,75	
1552,704	-48,74	
1552,706	-48,72	
1552,708	-48,68	
1552,710	-48,68	
1552,712	-48,61	
1552,714	-48,66	
1552,716	-48,61	
1552,718	-48,62	
1552,720	-48,58	
1552,722	-48,55	
1552,724	-48,52	
1552,726	-48,51	
1552,728	-48,51	
1552,730	-48,51	
1552,732	-48,52	
1552,734	-48,52	
1552,736	-48,48	
1552,738	-48,46	
1552,740	-48,42	
1552,742	-48,40	
1552,744	-48,38	
1552,746	-48,37	
1552,748	-48,38	
1552,750	-48,32	
1552,752	-48,29	
1552,754	-48,31	
1552,756	-48,30	
1552,758	-48,31	
1552,760	-48,24	
1552,762	-48,20	
1552,764	-48,23	
1552,766	-48,20	
1552,768	-48,18	
1552,770	-48,18	
1552,772	-48,20	
1552,774	-48,19	
1552,776	-48,16	
1552,778	-48,13	
1552,780	-48,10	
1552,782	-48,09	
1552,784	-48,10	
1552,786	-48,07	
1552,788	-48,08	
1552,790	-48,05	
1552,792	-48,03	
1552,794	-48,00	
1552,796	-47,98	
1552,798	-47,95	
1552,800	-47,93	
1552,802	-47,93	
1552,804	-47,92	
1552,806	-47,91	
1552,808	-47,93	
1552,810	-47,90	
1552,812	-47,92	
1552,814	-47,85	
1552,816	-47,86	
1552,818	-47,87	
1552,820	-47,81	
1552,822	-47,82	
1552,824	-47,81	
1552,826	-47,79	
1552,828	-47,77	
1552,830	-47,75	
1552,832	-47,79	
1552,834	-47,78	
1552,836	-47,76	
1552,838	-47,78	
1552,840	-47,75	
1552,842	-47,73	
1552,844	-47,79	
1552,846	-47,76	
1552,848	-47,73	
1552,850	-47,73	
1552,852	-47,72	
1552,854	-47,70	
1552,856	-47,75	
1552,858	-47,70	
1552,860	-47,72	
1552,862	-47,72	
1552,864	-47,71	
1552,866	-47,71	
1552,868	-47,70	
1552,870	-47,70	
1552,872	-47,71	
1552,874	-47,71	
1552,876	-47,69	
1552,878	-47,73	
1552,880	-47,69	
1552,882	-47,70	
1552,884	-47,68	
1552,886	-47,69	
1552,888	-47,67	
1552,890	-47,66	
1552,892	-47,69	
1552,894	-47,71	
1552,896	-47,65	
1552,898	-47,71	
1552,900	-47,67	
1552,902	-47,67	
1552,904	-47,65	
1552,906	-47,66	
1552,908	-47,64	
1552,910	-47,61	
1552,912	-47,64	
1552,914	-47,64	
1552,916	-47,64	
1552,918	-47,65	
1552,920	-47,70	
1552,922	-47,68	
1552,924	-47,70	
1552,926	-47,70	
1552,928	-47,69	
1552,930	-47,67	
1552,932	-47,66	
1552,934	-47,69	
1552,936	-47,73	
1552,938	-47,67	
1552,940	-47,70	
1552,942	-47,73	
1552,944	-47,73	
1552,946	-47,74	
1552,948	-47,74	
1552,950	-47,74	
1552,952	-47,73	
1552,954	-47,73	
1552,956	-47,73	
1552,958	-47,73	
1552,960	-47,73	
1552,962	-47,77	
1552,964	-47,80	
1552,966	-47,79	
1552,968	-47,78	
1552,970	-47,78	
1552,972	-47,77	
1552,974	-47,83	
1552,976	-47,83	
1552,978	-47,84	
1552,980	-47,82	
1552,982	-47,80	
1552,984	-47,80	
1552,986	-47,80	
1552,988	-47,86	
1552,990	-47,93	
1552,992	-47,89	
1552,994	-47,88	
1552,996	-47,92	
1552,998	-47,93	
1553,000	-47,96	
1553,002	-47,97	
1553,004	-47,93	
1553,006	-47,97	
1553,008	-48,00	
1553,010	-47,95	
1553,012	-47,95	
1553,014	-48,00	
1553,016	-47,98	
1553,018	-47,96	
1553,020	-47,99	
1553,022	-48,02	
1553,024	-48,01	
1553,026	-47,99	
1553,028	-48,05	
1553,030	-48,06	
1553,032	-48,06	
1553,034	-48,08	
1553,036	-48,09	
1553,038	-48,07	
1553,040	-48,13	
1553,042	-48,18	
1553,044	-48,16	
1553,046	-48,11	
1553,048	-48,18	
1553,050	-48,21	
1553,052	-48,19	
1553,054	-48,21	
1553,056	-48,24	
1553,058	-48,26	
1553,060	-48,22	
1553,062	-48,26	
1553,064	-48,30	
1553,066	-48,30	
1553,068	-48,30	
1553,070	-48,31	
1553,072	-48,32	
1553,074	-48,35	
1553,076	-48,33	
1553,078	-48,34	
1553,080	-48,37	
1553,082	-48,41	
1553,084	-48,43	
1553,086	-48,44	
1553,088	-48,47	
1553,090	-48,51	
1553,092	-48,56	
1553,094	-48,52	
1553,096	-48,55	
1553,098	-48,55	
1553,100	-48,56	
1553,102	-48,59	
1553,104	-48,59	
1553,106	-48,59	
1553,108	-48,64	
1553,110	-48,67	
1553,112	-48,67	
1553,114	-48,69	
1553,116	-48,70	
1553,118	-48,72	
1553,120	-48,76	
1553,122	-48,77	
1553,124	-48,78	
1553,126	-48,82	
1553,128	-48,82	
1553,130	-48,84	
1553,132	-48,85	
1553,134	-48,86	
1553,136	-48,87	
1553,138	-48,86	
1553,140	-48,95	
1553,142	-48,99	
1553,144	-48,94	
1553,146	-48,94	
1553,148	-48,98	
1553,150	-49,05	
1553,152	-49,03	
1553,154	-48,98	
1553,156	-49,03	
1553,158	-49,07	
1553,160	-49,11	
1553,162	-49,12	
1553,164	-49,19	
1553,166	-49,17	
1553,168	-49,16	
1553,170	-49,19	
1553,172	-49,23	
1553,174	-49,25	
1553,176	-49,25	
1553,178	-49,25	
1553,180	-49,32	
1553,182	-49,30	
1553,184	-49,27	
1553,186	-49,30	
1553,188	-49,33	
1553,190	-49,38	
1553,192	-49,46	
1553,194	-49,52	
1553,196	-49,51	
1553,198	-49,47	
1553,200	-49,51	
1553,202	-49,55	
1553,204	-49,57	
1553,206	-49,55	
1553,208	-49,61	
1553,210	-49,62	
1553,212	-49,65	
1553,214	-49,65	
1553,216	-49,69	
1553,218	-49,70	
1553,220	-49,64	
1553,222	-49,61	
1553,224	-49,61	
1553,226	-49,67	
1553,228	-49,75	
1553,230	-49,72	
1553,232	-49,71	
1553,234	-49,79	
1553,236	-49,87	
1553,238	-49,86	
1553,240	-49,88	
1553,242	-49,95	
1553,244	-49,96	
1553,246	-49,95	
1553,248	-50,02	
1553,250	-50,05	
1553,252	-50,05	
1553,254	-49,99	
1553,256	-50,14	
1553,258	-50,16	
1553,260	-50,11	
1553,262	-50,11	
1553,264	-50,13	
1553,266	-50,13	
1553,268	-50,17	
1553,270	-50,14	
1553,272	-50,22	
1553,274	-50,25	
1553,276	-50,24	
1553,278	-50,18	
1553,280	-50,20	
1553,282	-50,22	
1553,284	-50,22	
1553,286	-50,29	
1553,288	-50,32	
1553,290	-50,30	
1553,292	-50,29	
1553,294	-50,32	
1553,296	-50,36	
1553,298	-50,46	
1553,300	-50,47	
1553,302	-50,43	
1553,304	-50,47	
1553,306	-50,47	
1553,308	-50,52	
1553,310	-50,50	
1553,312	-50,49	
1553,314	-50,48	
1553,316	-50,47	
1553,318	-50,49	
1553,320	-50,50	
1553,322	-50,50	
1553,324	-50,56	
1553,326	-50,53	
1553,328	-50,60	
1553,330	-50,63	
1553,332	-50,63	
1553,334	-50,66	
1553,336	-50,71	
1553,338	-50,74	
1553,340	-50,70	
1553,342	-50,69	
1553,344	-50,82	
1553,346	-50,79	
1553,348	-50,77	
1553,350	-50,96	
1553,352	-50,83	
1553,354	-50,82	
1553,356	-50,85	
1553,358	-50,88	
1553,360	-50,94	
1553,362	-50,95	
1553,364	-50,87	
1553,366	-50,90	
1553,368	-50,92	
1553,370	-50,94	
1553,372	-50,89	
1553,374	-50,93	
1553,376	-50,94	
1553,378	-51,01	
1553,380	-51,07	
1553,382	-51,06	
1553,384	-51,12	
1553,386	-51,15	
1553,388	-51,07	
1553,390	-51,07	
1553,392	-51,10	
1553,394	-51,09	
1553,396	-51,07	
1553,398	-51,13	
1553,400	-51,13	
1553,402	-51,09	
1553,404	-51,16	
1553,406	-51,17	
1553,408	-51,16	
1553,410	-51,26	
1553,412	-51,31	
1553,414	-51,32	
1553,416	-51,25	
1553,418	-51,17	
1553,420	-51,22	
1553,422	-51,28	
1553,424	-51,31	
1553,426	-51,36	
1553,428	-51,32	
1553,430	-51,28	
1553,432	-51,29	
1553,434	-51,31	
1553,436	-51,45	
1553,438	-51,45	
1553,440	-51,38	
1553,442	-51,40	
1553,444	-51,45	
1553,446	-51,43	
1553,448	-51,41	
1553,450	-51,42	
1553,452	-51,42	
1553,454	-51,49	
1553,456	-51,51	
1553,458	-51,46	
1553,460	-51,58	
1553,462	-51,54	
1553,464	-51,47	
1553,466	-51,51	
1553,468	-51,48	
1553,470	-51,53	
1553,472	-51,55	
1553,474	-51,51	
1553,476	-51,52	
1553,478	-51,47	
1553,480	-51,46	
1553,482	-51,58	
1553,484	-51,63	
1553,486	-51,65	
1553,488	-51,74	
1553,490	-51,72	
1553,492	-51,64	
1553,494	-51,61	
1553,496	-51,64	
1553,498	-51,67	
1553,500	-51,65	
1553,502	-51,79	
1553,504	-51,74	
1553,506	-51,82	
1553,508	-51,83	
1553,510	-51,72	
1553,512	-51,68	
1553,514	-51,59	
1553,516	-51,56	
1553,518	-51,55	
1553,520	-51,55	
1553,522	-51,60	
1553,524	-51,55	
1553,526	-51,45	
1553,528	-51,16	
1553,530	-51,12	
1553,532	-51,08	
1553,534	-51,06	
1553,536	-51,04	
1553,538	-50,99	
1553,540	-51,02	
1553,542	-51,12	
1553,544	-51,15	
1553,546	-51,34	
1553,548	-51,44	
1553,550	-51,44	
1553,552	-51,39	
1553,554	-51,36	
1553,556	-51,38	
1553,558	-51,48	
1553,560	-51,60	
1553,562	-51,73	
1553,564	-51,84	
1553,566	-51,75	
1553,568	-51,72	
1553,570	-51,68	
1553,572	-51,53	
1553,574	-51,53	
1553,576	-51,44	
1553,578	-51,50	
1553,580	-51,50	
1553,582	-51,66	
1553,584	-51,71	
1553,586	-51,62	
1553,588	-51,49	
1553,590	-51,22	
1553,592	-50,93	
1553,594	-50,96	
1553,596	-51,20	
1553,598	-51,47	
1553,600	-51,81	
1553,602	-51,71	
1553,604	-51,46	
1553,606	-51,22	
1553,608	-50,86	
1553,610	-51,02	
1553,612	-51,32	
1553,614	-51,70	
1553,616	-51,93	
1553,618	-51,82	
1553,620	-51,52	
1553,622	-51,22	
1553,624	-51,07	
1553,626	-51,15	
1553,628	-51,27	
1553,630	-51,54	
1553,632	-51,66	
1553,634	-51,72	
1553,636	-51,62	
1553,638	-51,44	
1553,640	-51,61	
1553,642	-51,79	
1553,644	-51,95	
1553,646	-52,01	
1553,648	-52,08	
1553,650	-52,13	
1553,652	-52,14	
1553,654	-52,14	
1553,656	-52,19	
1553,658	-52,31	
1553,660	-52,41	
1553,662	-52,37	
1553,664	-52,41	
1553,666	-52,31	
1553,668	-52,29	
1553,670	-52,26	
1553,672	-52,28	
1553,674	-52,32	
1553,676	-52,26	
1553,678	-52,31	
1553,680	-52,28	
1553,682	-52,35	
1553,684	-52,31	
1553,686	-52,29	
1553,688	-52,29	
1553,690	-52,23	
1553,692	-52,21	
1553,694	-52,22	
1553,696	-52,28	
1553,698	-52,36	
1553,700	-52,28	
1553,702	-52,34	
1553,704	-52,32	
1553,706	-52,43	
1553,708	-52,43	
1553,710	-52,56	
1553,712	-52,65	
1553,714	-52,57	
1553,716	-52,49	
1553,718	-52,44	
1553,720	-52,58	
1553,722	-52,53	
1553,724	-52,41	
1553,726	-52,40	
1553,728	-52,36	
1553,730	-52,38	
1553,732	-52,47	
1553,734	-52,48	
1553,736	-52,46	
1553,738	-52,43	
1553,740	-52,48	
1553,742	-52,52	
1553,744	-52,50	
1553,746	-52,45	
1553,748	-52,43	
1553,750	-52,37	
1553,752	-52,34	
1553,754	-52,48	
1553,756	-52,54	
1553,758	-52,52	
1553,760	-52,41	
1553,762	-52,37	
1553,764	-52,44	
1553,766	-52,43	
1553,768	-52,34	
1553,770	-52,31	
1553,772	-52,45	
1553,774	-52,53	
1553,776	-52,43	
1553,778	-52,45	
1553,780	-52,47	
1553,782	-52,38	
1553,784	-52,38	
1553,786	-52,39	
1553,788	-52,34	
1553,790	-52,51	
1553,792	-52,57	
1553,794	-52,56	
1553,796	-52,47	
1553,798	-52,39	
1553,800	-52,36	
1553,802	-52,37	
1553,804	-52,39	
1553,806	-52,33	
1553,808	-52,47	
1553,810	-52,45	
1553,812	-52,62	
1553,814	-52,59	
1553,816	-52,47	
1553,818	-52,45	
1553,820	-52,28	
1553,822	-52,17	
1553,824	-52,18	
1553,826	-52,22	
1553,828	-52,32	
1553,830	-52,44	
1553,832	-52,45	
1553,834	-52,27	
1553,836	-52,26	
1553,838	-52,15	
1553,840	-52,12	
1553,842	-51,84	
1553,844	-51,88	
1553,846	-51,89	
1553,848	-52,04	
1553,850	-52,21	
1553,852	-52,25	
1553,854	-52,20	
1553,856	-52,09	
1553,858	-51,94	
1553,860	-51,93	
1553,862	-52,00	
1553,864	-52,07	
1553,866	-52,24	
1553,868	-52,37	
1553,870	-52,36	
1553,872	-52,40	
1553,874	-52,25	
1553,876	-52,01	
1553,878	-52,20	
1553,880	-52,32	
1553,882	-52,50	
1553,884	-52,51	
1553,886	-52,47	
1553,888	-52,43	
1553,890	-52,41	
1553,892	-52,44	
1553,894	-52,47	
1553,896	-52,48	
1553,898	-52,51	
1553,900	-52,50	
1553,902	-52,57	
1553,904	-52,29	
1553,906	-52,34	
1553,908	-52,39	
1553,910	-52,42	
1553,912	-52,39	
1553,914	-52,49	
1553,916	-52,51	
1553,918	-52,49	
1553,920	-52,46	
1553,922	-52,50	
1553,924	-52,50	
1553,926	-52,41	
1553,928	-52,44	
1553,930	-52,41	
1553,932	-52,52	
1553,934	-52,51	
1553,936	-52,42	
1553,938	-52,24	
1553,940	-52,36	
1553,942	-52,39	
1553,944	-52,43	
1553,946	-52,43	
1553,948	-52,47	
1553,950	-52,38	
1553,952	-52,31	
1553,954	-52,36	
1553,956	-52,34	
1553,958	-52,35	
1553,960	-52,25	
1553,962	-52,40	
1553,964	-52,45	
1553,966	-52,36	
1553,968	-52,31	
1553,970	-52,26	
1553,972	-52,27	
1553,974	-52,17	
1553,976	-52,12	
1553,978	-52,15	
1553,980	-52,25	
1553,982	-52,34	
1553,984	-52,25	
1553,986	-52,15	
1553,988	-52,01	
1553,990	-51,98	
1553,992	-51,88	
1553,994	-51,98	
1553,996	-52,11	
1553,998	-52,15	
1554,000	-52,06	
1554,002	-51,95	
1554,004	-51,90	
1554,006	-51,87	
1554,008	-51,95	
1554,010	-52,05	
1554,012	-52,06	
1554,014	-51,98	
1554,016	-51,89	
1554,018	-51,90	
1554,020	-51,87	
1554,022	-51,93	
1554,024	-52,03	
1554,026	-52,09	
1554,028	-52,12	
1554,030	-52,18	
1554,032	-52,18	
1554,034	-52,11	
1554,036	-51,89	
1554,038	-51,82	
1554,040	-51,90	
1554,042	-51,99	
1554,044	-51,92	
1554,046	-51,97	
1554,048	-52,10	
1554,050	-52,06	
1554,052	-52,00	
1554,054	-52,08	
1554,056	-51,98	
1554,058	-52,02	
1554,060	-52,12	
1554,062	-52,06	
1554,064	-52,08	
1554,066	-52,15	
1554,068	-52,12	
1554,070	-52,11	
1554,072	-52,03	
1554,074	-51,91	
1554,076	-51,96	
1554,078	-51,98	
1554,080	-51,91	
1554,082	-51,92	
1554,084	-52,04	
1554,086	-52,07	
1554,088	-51,90	
1554,090	-51,97	
1554,092	-52,04	
1554,094	-51,96	
1554,096	-51,92	
1554,098	-51,97	
1554,100	-51,81	
1554,102	-52,02	
1554,104	-52,03	
1554,106	-51,89	
1554,108	-51,78	
1554,110	-51,67	
1554,112	-51,68	
1554,114	-51,77	
1554,116	-51,85	
1554,118	-51,84	
1554,120	-51,75	
1554,122	-51,61	
1554,124	-51,53	
1554,126	-51,50	
1554,128	-51,61	
1554,130	-51,64	
1554,132	-51,68	
1554,134	-51,60	
1554,136	-51,46	
1554,138	-51,39	
1554,140	-51,43	
1554,142	-51,46	
1554,144	-51,32	
1554,146	-51,40	
1554,148	-51,33	
1554,150	-51,33	
1554,152	-51,30	
1554,154	-51,17	
1554,156	-51,05	
1554,158	-51,04	
1554,160	-51,02	
1554,162	-51,05	
1554,164	-51,20	
1554,166	-51,32	
1554,168	-51,17	
1554,170	-51,11	
1554,172	-51,06	
1554,174	-50,95	
1554,176	-50,99	
1554,178	-51,22	
1554,180	-51,45	
1554,182	-51,55	
1554,184	-51,72	
1554,186	-51,52	
1554,188	-51,53	
1554,190	-51,46	
1554,192	-51,46	
1554,194	-51,48	
1554,196	-51,55	
1554,198	-51,49	
1554,200	-51,35	
1554,202	-51,33	
1554,204	-51,42	
1554,206	-51,49	
1554,208	-51,51	
1554,210	-51,60	
1554,212	-51,44	
1554,214	-51,44	
1554,216	-51,42	
1554,218	-51,40	
1554,220	-51,38	
1554,222	-51,36	
1554,224	-51,37	
1554,226	-51,36	
1554,228	-51,34	
1554,230	-51,31	
1554,232	-51,30	
1554,234	-51,21	
1554,236	-51,15	
1554,238	-51,16	
1554,240	-51,22	
1554,242	-51,18	
1554,244	-51,32	
1554,246	-51,14	
1554,248	-51,10	
1554,250	-51,12	
1554,252	-51,12	
1554,254	-51,09	
1554,256	-51,08	
1554,258	-51,09	
1554,260	-51,09	
1554,262	-51,06	
1554,264	-51,11	
1554,266	-51,00	
1554,268	-50,99	
1554,270	-50,74	
1554,272	-50,62	
1554,274	-50,68	
1554,276	-50,77	
1554,278	-50,88	
1554,280	-50,97	
1554,282	-50,87	
1554,284	-50,70	
1554,286	-50,59	
1554,288	-50,53	
1554,290	-50,59	
1554,292	-50,69	
1554,294	-50,70	
1554,296	-50,79	
1554,298	-50,79	
1554,300	-50,67	
1554,302	-50,66	
1554,304	-50,64	
1554,306	-50,62	
1554,308	-50,63	
1554,310	-50,69	
1554,312	-50,75	
1554,314	-50,80	
1554,316	-50,81	
1554,318	-50,73	
1554,320	-50,68	
1554,322	-50,70	
1554,324	-50,74	
1554,326	-50,73	
1554,328	-50,69	
1554,330	-50,65	
1554,332	-50,58	
1554,334	-50,48	
1554,336	-50,56	
1554,338	-50,63	
1554,340	-50,56	
1554,342	-50,58	
1554,344	-50,63	
1554,346	-50,57	
1554,348	-50,53	
1554,350	-50,57	
1554,352	-50,57	
1554,354	-50,53	
1554,356	-50,59	
1554,358	-50,48	
1554,360	-50,54	
1554,362	-50,56	
1554,364	-50,48	
1554,366	-50,41	
1554,368	-50,44	
1554,370	-50,40	
1554,372	-50,36	
1554,374	-50,38	
1554,376	-50,40	
1554,378	-50,40	
1554,380	-50,37	
1554,382	-50,33	
1554,384	-50,27	
1554,386	-50,20	
1554,388	-50,20	
1554,390	-50,28	
1554,392	-50,22	
1554,394	-50,25	
1554,396	-50,27	
1554,398	-50,28	
1554,400	-50,26	
1554,402	-50,26	
1554,404	-50,27	
1554,406	-50,24	
1554,408	-50,19	
1554,410	-50,22	
1554,412	-50,28	
1554,414	-50,20	
1554,416	-50,18	
1554,418	-50,14	
1554,420	-50,12	
1554,422	-50,06	
1554,424	-50,04	
1554,426	-49,97	
1554,428	-49,98	
1554,430	-49,97	
1554,432	-49,92	
1554,434	-49,86	
1554,436	-49,85	
1554,438	-49,92	
1554,440	-49,94	
1554,442	-49,90	
1554,444	-49,91	
1554,446	-49,99	
1554,448	-49,86	
1554,450	-49,85	
1554,452	-49,86	
1554,454	-49,92	
1554,456	-49,90	
1554,458	-49,85	
1554,460	-49,79	
1554,462	-49,75	
1554,464	-49,74	
1554,466	-49,74	
1554,468	-49,73	
1554,470	-49,76	
1554,472	-49,77	
1554,474	-49,71	
1554,476	-49,75	
1554,478	-49,69	
1554,480	-49,72	
1554,482	-49,73	
1554,484	-49,71	
1554,486	-49,73	
1554,488	-49,72	
1554,490	-49,71	
1554,492	-49,70	
1554,494	-49,72	
1554,496	-49,68	
1554,498	-49,69	
1554,500	-49,70	
1554,502	-49,67	
1554,504	-49,65	
1554,506	-49,63	
1554,508	-49,60	
1554,510	-49,57	
1554,512	-49,55	
1554,514	-49,52	
1554,516	-49,49	
1554,518	-49,48	
1554,520	-49,53	
1554,522	-49,58	
1554,524	-49,50	
1554,526	-49,55	
1554,528	-49,52	
1554,530	-49,47	
1554,532	-49,54	
1554,534	-49,48	
1554,536	-49,47	
1554,538	-49,50	
1554,540	-49,46	
1554,542	-49,47	
1554,544	-49,44	
1554,546	-49,44	
1554,548	-49,46	
1554,550	-49,40	
1554,552	-49,40	
1554,554	-49,40	
1554,556	-49,39	
1554,558	-49,31	
1554,560	-49,27	
1554,562	-49,29	
1554,564	-49,38	
1554,566	-49,39	
1554,568	-49,32	
1554,570	-49,29	
1554,572	-49,31	
1554,574	-49,35	
1554,576	-49,30	
1554,578	-49,28	
1554,580	-49,32	
1554,582	-49,35	
1554,584	-49,33	
1554,586	-49,32	
1554,588	-49,35	
1554,590	-49,33	
1554,592	-49,30	
1554,594	-49,35	
1554,596	-49,31	
1554,598	-49,26	
1554,600	-49,25	
1554,602	-49,23	
1554,604	-49,17	
1554,606	-49,14	
1554,608	-49,17	
1554,610	-49,19	
1554,612	-49,21	
1554,614	-49,25	
1554,616	-49,26	
1554,618	-49,21	
1554,620	-49,17	
1554,622	-49,12	
1554,624	-49,17	
1554,626	-49,21	
1554,628	-49,23	
1554,630	-49,20	
1554,632	-49,20	
1554,634	-49,22	
1554,636	-49,25	
1554,638	-49,18	
1554,640	-49,16	
1554,642	-49,17	
1554,644	-49,17	
1554,646	-49,14	
1554,648	-49,12	
1554,650	-49,14	
1554,652	-49,13	
1554,654	-49,13	
1554,656	-49,11	
1554,658	-49,16	
1554,660	-49,16	
1554,662	-49,08	
1554,664	-49,12	
1554,666	-49,12	
1554,668	-49,14	
1554,670	-49,09	
1554,672	-49,04	
1554,674	-49,08	
1554,676	-49,11	
1554,678	-49,09	
1554,680	-49,09	
1554,682	-49,09	
1554,684	-49,07	
1554,686	-49,03	
1554,688	-49,04	
1554,690	-49,09	
1554,692	-49,12	
1554,694	-49,06	
1554,696	-49,06	
1554,698	-48,99	
1554,700	-48,96	
1554,702	-48,90	
1554,704	-48,89	
1554,706	-48,91	
1554,708	-48,95	
1554,710	-48,99	
1554,712	-48,99	
1554,714	-48,95	
1554,716	-48,93	
1554,718	-48,89	
1554,720	-48,87	
1554,722	-48,90	
1554,724	-48,92	
1554,726	-48,89	
1554,728	-48,85	
1554,730	-48,88	
1554,732	-48,83	
1554,734	-48,92	
1554,736	-48,91	
1554,738	-48,86	
1554,740	-48,86	
1554,742	-48,79	
1554,744	-48,76	
1554,746	-48,77	
1554,748	-48,78	
1554,750	-48,80	
1554,752	-48,85	
1554,754	-48,85	
1554,756	-48,80	
1554,758	-48,75	
1554,760	-48,72	
1554,762	-48,66	
1554,764	-48,68	
1554,766	-48,77	
1554,768	-48,76	
1554,770	-48,79	
1554,772	-48,79	
1554,774	-48,77	
1554,776	-48,70	
1554,778	-48,77	
1554,780	-48,82	
1554,782	-48,85	
1554,784	-48,84	
1554,786	-48,87	
1554,788	-48,88	
1554,790	-48,92	
1554,792	-48,93	
1554,794	-48,95	
1554,796	-48,99	
1554,798	-49,00	
1554,800	-49,02	
1554,802	-49,10	
1554,804	-49,08	
1554,806	-49,03	
1554,808	-49,06	
1554,810	-49,08	
1554,812	-49,07	
1554,814	-49,09	
1554,816	-49,15	
1554,818	-49,11	
1554,820	-49,04	
1554,822	-49,08	
1554,824	-49,11	
1554,826	-49,15	
1554,828	-49,15	
1554,830	-49,13	
1554,832	-49,19	
1554,834	-49,19	
1554,836	-49,26	
1554,838	-49,25	
1554,840	-49,31	
1554,842	-49,24	
1554,844	-49,26	
1554,846	-49,29	
1554,848	-49,30	
1554,850	-49,37	
1554,852	-49,35	
1554,854	-49,31	
1554,856	-49,35	
1554,858	-49,33	
1554,860	-49,33	
1554,862	-49,34	
1554,864	-49,38	
1554,866	-49,41	
1554,868	-49,45	
1554,870	-49,45	
1554,872	-49,43	
1554,874	-49,42	
1554,876	-49,40	
1554,878	-49,42	
1554,880	-49,50	
1554,882	-49,46	
1554,884	-49,51	
1554,886	-49,54	
1554,888	-49,48	
1554,890	-49,51	
1554,892	-49,52	
1554,894	-49,56	
1554,896	-49,58	
1554,898	-49,59	
1554,900	-49,58	
1554,902	-49,56	
1554,904	-49,57	
1554,906	-49,60	
1554,908	-49,63	
1554,910	-49,62	
1554,912	-49,60	
1554,914	-49,59	
1554,916	-49,62	
1554,918	-49,66	
1554,920	-49,61	
1554,922	-49,68	
1554,924	-49,64	
1554,926	-49,65	
1554,928	-49,72	
1554,930	-49,70	
1554,932	-49,71	
1554,934	-49,71	
1554,936	-49,69	
1554,938	-49,71	
1554,940	-49,74	
1554,942	-49,74	
1554,944	-49,78	
1554,946	-49,83	
1554,948	-49,73	
1554,950	-49,75	
1554,952	-49,74	
1554,954	-49,76	
1554,956	-49,83	
1554,958	-49,87	
1554,960	-49,90	
1554,962	-49,93	
1554,964	-49,93	
1554,966	-49,93	
1554,968	-49,97	
1554,970	-49,93	
1554,972	-49,92	
1554,974	-49,97	
1554,976	-50,00	
1554,978	-49,99	
1554,980	-50,01	
1554,982	-49,97	
1554,984	-49,98	
1554,986	-50,04	
1554,988	-50,06	
1554,990	-50,08	
1554,992	-50,08	
1554,994	-50,02	
1554,996	-49,97	
1554,998	-49,95	
1555,000	-49,93	
1555,002	-50,05	
1555,004	-50,07	
1555,006	-50,14	
1555,008	-50,18	
1555,010	-50,15	
1555,012	-50,02	
1555,014	-50,00	
1555,016	-50,08	
1555,018	-50,12	
1555,020	-50,17	
1555,022	-50,22	
1555,024	-50,22	
1555,026	-50,13	
1555,028	-50,16	
1555,030	-50,16	
1555,032	-50,18	
1555,034	-50,25	
1555,036	-50,23	
1555,038	-50,21	
1555,040	-50,17	
1555,042	-50,16	
1555,044	-50,21	
1555,046	-50,22	
1555,048	-50,24	
1555,050	-50,32	
1555,052	-50,27	
1555,054	-50,27	
1555,056	-50,28	
1555,058	-50,25	
1555,060	-50,23	
1555,062	-50,33	
1555,064	-50,42	
1555,066	-50,37	
1555,068	-50,37	
1555,070	-50,34	
1555,072	-50,35	
1555,074	-50,37	
1555,076	-50,53	
1555,078	-50,45	
1555,080	-50,50	
1555,082	-50,52	
1555,084	-50,51	
1555,086	-50,54	
1555,088	-50,51	
1555,090	-50,47	
1555,092	-50,56	
1555,094	-50,60	
1555,096	-50,57	
1555,098	-50,54	
1555,100	-50,56	
1555,102	-50,59	
1555,104	-50,60	
1555,106	-50,63	
1555,108	-50,67	
1555,110	-50,71	
1555,112	-50,67	
1555,114	-50,70	
1555,116	-50,70	
1555,118	-50,69	
1555,120	-50,76	
1555,122	-50,76	
1555,124	-50,81	
1555,126	-50,76	
1555,128	-50,83	
1555,130	-50,80	
1555,132	-50,84	
1555,134	-50,82	
1555,136	-50,88	
1555,138	-50,97	
1555,140	-50,93	
1555,142	-50,91	
1555,144	-50,89	
1555,146	-50,86	
1555,148	-50,87	
1555,150	-50,83	
1555,152	-50,97	
1555,154	-50,95	
1555,156	-50,83	
1555,158	-50,93	
1555,160	-51,00	
1555,162	-50,94	
1555,164	-51,00	
1555,166	-50,98	
1555,168	-50,95	
1555,170	-50,95	
1555,172	-50,93	
1555,174	-50,97	
1555,176	-51,09	
1555,178	-51,05	
1555,180	-51,05	
1555,182	-51,03	
1555,184	-51,00	
1555,186	-51,03	
1555,188	-51,00	
1555,190	-51,12	
1555,192	-51,10	
1555,194	-51,06	
1555,196	-51,05	
1555,198	-51,01	
1555,200	-51,05	
1555,202	-51,15	
1555,204	-51,17	
1555,206	-51,05	
1555,208	-50,91	
1555,210	-50,82	
1555,212	-50,82	
1555,214	-50,98	
1555,216	-51,11	
1555,218	-51,11	
1555,220	-51,04	
1555,222	-50,93	
1555,224	-50,81	
1555,226	-50,85	
1555,228	-50,99	
1555,230	-51,15	
1555,232	-51,07	
1555,234	-50,98	
1555,236	-50,89	
1555,238	-50,89	
1555,240	-50,99	
1555,242	-51,09	
1555,244	-51,16	
1555,246	-51,25	
1555,248	-51,19	
1555,250	-51,38	
1555,252	-51,29	
1555,254	-51,27	
1555,256	-51,26	
1555,258	-51,20	
1555,260	-51,25	
1555,262	-51,34	
1555,264	-51,35	
1555,266	-51,34	
1555,268	-51,31	
1555,270	-51,19	
1555,272	-51,24	
1555,274	-51,33	
1555,276	-51,39	
1555,278	-51,47	
1555,280	-51,37	
1555,282	-51,18	
1555,284	-51,13	
1555,286	-51,20	
1555,288	-51,29	
1555,290	-51,47	
1555,292	-51,41	
1555,294	-51,35	
1555,296	-51,30	
1555,298	-51,19	
1555,300	-51,35	
1555,302	-51,44	
1555,304	-51,42	
1555,306	-51,40	
1555,308	-51,42	
1555,310	-51,46	
1555,312	-51,53	
1555,314	-51,55	
1555,316	-51,64	
1555,318	-51,51	
1555,320	-51,60	
1555,322	-51,55	
1555,324	-51,56	
1555,326	-51,63	
1555,328	-51,69	
1555,330	-51,65	
1555,332	-51,57	
1555,334	-51,71	
1555,336	-51,67	
1555,338	-51,58	
1555,340	-51,60	
1555,342	-51,65	
1555,344	-51,67	
1555,346	-51,70	
1555,348	-51,72	
1555,350	-51,71	
1555,352	-51,68	
1555,354	-51,71	
1555,356	-51,80	
1555,358	-51,87	
1555,360	-51,85	
1555,362	-51,76	
1555,364	-51,76	
1555,366	-51,78	
1555,368	-51,80	
1555,370	-51,75	
1555,372	-51,73	
1555,374	-51,76	
1555,376	-51,77	
1555,378	-51,77	
1555,380	-51,85	
1555,382	-51,82	
1555,384	-51,86	
1555,386	-51,91	
1555,388	-51,81	
1555,390	-51,80	
1555,392	-51,85	
1555,394	-51,90	
1555,396	-51,81	
1555,398	-51,81	
1555,400	-51,94	
1555,402	-51,79	
1555,404	-51,89	
1555,406	-51,94	
1555,408	-51,82	
1555,410	-51,76	
1555,412	-51,82	
1555,414	-51,88	
1555,416	-51,86	
1555,418	-51,83	
1555,420	-51,88	
1555,422	-51,83	
1555,424	-51,90	
1555,426	-51,86	
1555,428	-51,82	
1555,430	-51,84	
1555,432	-51,80	
1555,434	-51,77	
1555,436	-51,82	
1555,438	-51,87	
1555,440	-51,84	
1555,442	-51,86	
1555,444	-52,00	
1555,446	-51,97	
1555,448	-51,82	
1555,450	-51,94	
1555,452	-51,87	
1555,454	-51,95	
1555,456	-52,00	
1555,458	-52,03	
1555,460	-52,04	
1555,462	-51,99	
1555,464	-51,96	
1555,466	-51,91	
1555,468	-51,93	
1555,470	-51,82	
1555,472	-51,93	
1555,474	-51,96	
1555,476	-51,89	
1555,478	-51,77	
1555,480	-51,81	
1555,482	-51,82	
1555,484	-51,92	
1555,486	-52,02	
1555,488	-52,00	
1555,490	-51,89	
1555,492	-51,76	
1555,494	-51,71	
1555,496	-51,73	
1555,498	-51,78	
1555,500	-51,95	
1555,502	-52,00	
1555,504	-51,99	
1555,506	-51,82	
1555,508	-51,85	
1555,510	-51,89	
1555,512	-51,92	
1555,514	-51,94	
1555,516	-51,92	
1555,518	-51,93	
1555,520	-51,92	
1555,522	-51,95	
1555,524	-51,96	
1555,526	-52,02	
1555,528	-52,02	
1555,530	-52,00	
1555,532	-52,02	
1555,534	-51,94	
1555,536	-51,92	
1555,538	-51,97	
1555,540	-52,00	
1555,542	-51,98	
1555,544	-51,96	
1555,546	-51,95	
1555,548	-51,91	
1555,550	-52,03	
1555,552	-51,98	
1555,554	-51,91	
1555,556	-51,96	
1555,558	-51,90	
1555,560	-51,82	
1555,562	-51,83	
1555,564	-51,92	
1555,566	-51,84	
1555,568	-51,98	
1555,570	-51,86	
1555,572	-51,83	
1555,574	-51,78	
1555,576	-51,85	
1555,578	-51,85	
1555,580	-51,86	
1555,582	-51,90	
1555,584	-51,86	
1555,586	-51,82	
1555,588	-51,73	
1555,590	-51,78	
1555,592	-51,78	
1555,594	-51,95	
1555,596	-51,92	
1555,598	-51,97	
1555,600	-51,89	
1555,602	-51,83	
1555,604	-51,77	
1555,606	-51,80	
1555,608	-51,92	
1555,610	-51,94	
1555,612	-51,93	
1555,614	-51,85	
1555,616	-51,86	
1555,618	-51,84	
1555,620	-51,79	
1555,622	-51,83	
1555,624	-51,88	
1555,626	-51,88	
1555,628	-51,78	
1555,630	-51,80	
1555,632	-51,90	
1555,634	-51,89	
1555,636	-51,88	
1555,638	-51,90	
1555,640	-51,92	
1555,642	-51,86	
1555,644	-51,69	
1555,646	-51,87	
1555,648	-51,76	
1555,650	-51,77	
1555,652	-51,86	
1555,654	-51,74	
1555,656	-51,77	
1555,658	-51,76	
1555,660	-51,79	
1555,662	-51,82	
1555,664	-51,85	
1555,666	-51,89	
1555,668	-51,82	
1555,670	-51,75	
1555,672	-51,76	
1555,674	-51,77	
1555,676	-51,85	
1555,678	-51,85	
1555,680	-51,84	
1555,682	-51,91	
1555,684	-51,92	
1555,686	-51,91	
1555,688	-51,81	
1555,690	-51,78	
1555,692	-51,82	
1555,694	-51,73	
1555,696	-51,77	
1555,698	-51,84	
1555,700	-51,91	
1555,702	-51,83	
1555,704	-51,83	
1555,706	-51,77	
1555,708	-51,74	
1555,710	-51,75	
1555,712	-51,72	
1555,714	-51,73	
1555,716	-51,82	
1555,718	-51,84	
1555,720	-51,77	
1555,722	-51,72	
1555,724	-51,64	
1555,726	-51,67	
1555,728	-51,65	
1555,730	-51,79	
1555,732	-51,74	
1555,734	-51,65	
1555,736	-51,58	
1555,738	-51,61	
1555,740	-51,54	
1555,742	-51,57	
1555,744	-51,55	
1555,746	-51,59	
1555,748	-51,63	
1555,750	-51,57	
1555,752	-51,49	
1555,754	-51,49	
1555,756	-51,58	
1555,758	-51,62	
1555,760	-51,60	
1555,762	-51,59	
1555,764	-51,54	
1555,766	-51,52	
1555,768	-51,60	
1555,770	-51,65	
1555,772	-51,56	
1555,774	-51,57	
1555,776	-51,61	
1555,778	-51,51	
1555,780	-51,55	
1555,782	-51,52	
1555,784	-51,56	
1555,786	-51,56	
1555,788	-51,50	
1555,790	-51,57	
1555,792	-51,52	
1555,794	-51,44	
1555,796	-51,42	
1555,798	-51,40	
1555,800	-51,42	
1555,802	-51,49	
1555,804	-51,54	
1555,806	-51,53	
1555,808	-51,51	
1555,810	-51,47	
1555,812	-51,43	
1555,814	-51,40	
1555,816	-51,38	
1555,818	-51,27	
1555,820	-51,25	
1555,822	-51,29	
1555,824	-51,31	
1555,826	-51,26	
1555,828	-51,42	
1555,830	-51,31	
1555,832	-51,42	
1555,834	-51,46	
1555,836	-51,35	
1555,838	-51,26	
1555,840	-51,34	
1555,842	-51,29	
1555,844	-51,33	
1555,846	-51,31	
1555,848	-51,29	
1555,850	-51,19	
1555,852	-51,12	
1555,854	-51,17	
1555,856	-51,15	
1555,858	-51,15	
1555,860	-51,20	
1555,862	-51,19	
1555,864	-51,21	
1555,866	-51,20	
1555,868	-51,18	
1555,870	-51,18	
1555,872	-51,08	
1555,874	-51,04	
1555,876	-51,10	
1555,878	-51,10	
1555,880	-51,11	
1555,882	-51,16	
1555,884	-51,15	
1555,886	-51,16	
1555,888	-51,03	
1555,890	-51,09	
1555,892	-51,03	
1555,894	-50,96	
1555,896	-50,94	
1555,898	-50,97	
1555,900	-50,97	
1555,902	-50,94	
1555,904	-51,00	
1555,906	-50,97	
1555,908	-50,94	
1555,910	-51,02	
1555,912	-51,00	
1555,914	-50,91	
1555,916	-50,86	
1555,918	-50,84	
1555,920	-50,86	
1555,922	-50,86	
1555,924	-50,82	
1555,926	-50,92	
1555,928	-50,88	
1555,930	-50,87	
1555,932	-50,88	
1555,934	-50,86	
1555,936	-50,77	
1555,938	-50,81	
1555,940	-50,86	
1555,942	-50,80	
1555,944	-50,82	
1555,946	-50,75	
1555,948	-50,69	
1555,950	-50,76	
1555,952	-50,74	
1555,954	-50,74	
1555,956	-50,71	
1555,958	-50,74	
1555,960	-50,75	
1555,962	-50,78	
1555,964	-50,73	
1555,966	-50,70	
1555,968	-50,63	
1555,970	-50,62	
1555,972	-50,60	
1555,974	-50,59	
1555,976	-50,62	
1555,978	-50,65	
1555,980	-50,66	
1555,982	-50,69	
1555,984	-50,65	
1555,986	-50,63	
1555,988	-50,62	
1555,990	-50,49	
1555,992	-50,52	
1555,994	-50,48	
1555,996	-50,47	
1555,998	-50,55	
1556,000	-50,49	
1556,002	-50,50	
1556,004	-50,47	
1556,006	-50,39	
1556,008	-50,42	
1556,010	-50,39	
1556,012	-50,35	
1556,014	-50,37	
1556,016	-50,33	
1556,018	-50,30	
1556,020	-50,30	
1556,022	-50,33	
1556,024	-50,36	
1556,026	-50,32	
1556,028	-50,32	
1556,030	-50,35	
1556,032	-50,33	
1556,034	-50,24	
1556,036	-50,21	
1556,038	-50,20	
1556,040	-50,15	
1556,042	-50,13	
1556,044	-50,13	
1556,046	-50,10	
1556,048	-50,15	
1556,050	-50,19	
1556,052	-50,11	
1556,054	-50,16	
1556,056	-50,11	
1556,058	-50,12	
1556,060	-50,16	
1556,062	-50,08	
1556,064	-50,13	
1556,066	-50,16	
1556,068	-50,07	
1556,070	-49,97	
1556,072	-49,96	
1556,074	-49,99	
1556,076	-50,02	
1556,078	-50,02	
1556,080	-49,98	
1556,082	-49,93	
1556,084	-49,92	
1556,086	-49,91	
1556,088	-49,92	
1556,090	-49,98	
1556,092	-49,92	
1556,094	-49,95	
1556,096	-49,95	
1556,098	-49,88	
1556,100	-49,85	
1556,102	-49,81	
1556,104	-49,78	
1556,106	-49,79	
1556,108	-49,80	
1556,110	-49,82	
1556,112	-49,82	
1556,114	-49,82	
1556,116	-49,84	
1556,118	-49,79	
1556,120	-49,81	
1556,122	-49,73	
1556,124	-49,72	
1556,126	-49,73	
1556,128	-49,74	
1556,130	-49,69	
1556,132	-49,69	
1556,134	-49,65	
1556,136	-49,62	
1556,138	-49,62	
1556,140	-49,62	
1556,142	-49,62	
1556,144	-49,59	
1556,146	-49,57	
1556,148	-49,60	
1556,150	-49,57	
1556,152	-49,54	
1556,154	-49,53	
1556,156	-49,52	
1556,158	-49,51	
1556,160	-49,48	
1556,162	-49,45	
1556,164	-49,49	
1556,166	-49,50	
1556,168	-49,45	
1556,170	-49,42	
1556,172	-49,41	
1556,174	-49,41	
1556,176	-49,35	
1556,178	-49,40	
1556,180	-49,43	
1556,182	-49,32	
1556,184	-49,38	
1556,186	-49,35	
1556,188	-49,29	
1556,190	-49,32	
1556,192	-49,35	
1556,194	-49,32	
1556,196	-49,32	
1556,198	-49,29	
1556,200	-49,28	
1556,202	-49,28	
1556,204	-49,24	
1556,206	-49,25	
1556,208	-49,22	
1556,210	-49,20	
1556,212	-49,21	
1556,214	-49,16	
1556,216	-49,16	
1556,218	-49,14	
1556,220	-49,14	
1556,222	-49,13	
1556,224	-49,09	
1556,226	-49,10	
1556,228	-49,11	
1556,230	-49,10	
1556,232	-49,07	
1556,234	-49,09	
1556,236	-49,08	
1556,238	-49,11	
1556,240	-49,03	
1556,242	-48,99	
1556,244	-48,98	
1556,246	-49,02	
1556,248	-49,01	
1556,250	-48,95	
1556,252	-48,95	
1556,254	-48,94	
1556,256	-48,93	
1556,258	-48,93	
1556,260	-48,93	
1556,262	-48,94	
1556,264	-48,96	
1556,266	-48,90	
1556,268	-48,84	
1556,270	-48,84	
1556,272	-48,90	
1556,274	-48,88	
1556,276	-48,90	
1556,278	-48,90	
1556,280	-48,85	
1556,282	-48,80	
1556,284	-48,80	
1556,286	-48,83	
1556,288	-48,88	
1556,290	-48,85	
1556,292	-48,74	
1556,294	-48,81	
1556,296	-48,78	
1556,298	-48,80	
1556,300	-48,83	
1556,302	-48,76	
1556,304	-48,78	
1556,306	-48,80	
1556,308	-48,77	
1556,310	-48,73	
1556,312	-48,73	
1556,314	-48,73	
1556,316	-48,67	
1556,318	-48,72	
1556,320	-48,75	
1556,322	-48,69	
1556,324	-48,69	
1556,326	-48,73	
1556,328	-48,70	
1556,330	-48,71	
1556,332	-48,73	
1556,334	-48,66	
1556,336	-48,63	
1556,338	-48,65	
1556,340	-48,64	
1556,342	-48,64	
1556,344	-48,65	
1556,346	-48,68	
1556,348	-48,64	
1556,350	-48,62	
1556,352	-48,65	
1556,354	-48,67	
1556,356	-48,67	
1556,358	-48,63	
1556,360	-48,61	
1556,362	-48,66	
1556,364	-48,61	
1556,366	-48,59	
1556,368	-48,58	
1556,370	-48,61	
1556,372	-48,63	
1556,374	-48,64	
1556,376	-48,67	
1556,378	-48,61	
1556,380	-48,63	
1556,382	-48,65	
1556,384	-48,62	
1556,386	-48,59	
1556,388	-48,60	
1556,390	-48,56	
1556,392	-48,54	
1556,394	-48,59	
1556,396	-48,62	
1556,398	-48,64	
1556,400	-48,61	
1556,402	-48,60	
1556,404	-48,59	
1556,406	-48,59	
1556,408	-48,58	
1556,410	-48,59	
1556,412	-48,57	
1556,414	-48,56	
1556,416	-48,58	
1556,418	-48,58	
1556,420	-48,56	
1556,422	-48,59	
1556,424	-48,60	
1556,426	-48,55	
1556,428	-48,61	
1556,430	-48,59	
1556,432	-48,62	
1556,434	-48,60	
1556,436	-48,62	
1556,438	-48,62	
1556,440	-48,62	
1556,442	-48,65	
1556,444	-48,65	
1556,446	-48,61	
1556,448	-48,64	
1556,450	-48,62	
1556,452	-48,63	
1556,454	-48,58	
1556,456	-48,59	
1556,458	-48,57	
1556,460	-48,57	
1556,462	-48,58	
1556,464	-48,61	
1556,466	-48,60	
1556,468	-48,59	
1556,470	-48,59	
1556,472	-48,59	
1556,474	-48,56	
1556,476	-48,62	
1556,478	-48,66	
1556,480	-48,63	
1556,482	-48,64	
1556,484	-48,66	
1556,486	-48,68	
1556,488	-48,67	
1556,490	-48,65	
1556,492	-48,65	
1556,494	-48,67	
1556,496	-48,67	
1556,498	-48,66	
1556,500	-48,69	
1556,502	-48,77	
1556,504	-48,74	
1556,506	-48,73	
1556,508	-48,74	
1556,510	-48,72	
1556,512	-48,73	
1556,514	-48,74	
1556,516	-48,72	
1556,518	-48,70	
1556,520	-48,73	
1556,522	-48,70	
1556,524	-48,76	
1556,526	-48,73	
1556,528	-48,72	
1556,530	-48,80	
1556,532	-48,82	
1556,534	-48,82	
1556,536	-48,84	
1556,538	-48,82	
1556,540	-48,76	
1556,542	-48,80	
1556,544	-48,87	
1556,546	-48,83	
1556,548	-48,88	
1556,550	-48,84	
1556,552	-48,90	
1556,554	-48,87	
1556,556	-48,85	
1556,558	-48,89	
1556,560	-48,92	
1556,562	-48,89	
1556,564	-48,90	
1556,566	-48,94	
1556,568	-48,94	
1556,570	-48,95	
1556,572	-48,93	
1556,574	-48,93	
1556,576	-48,98	
1556,578	-48,99	
1556,580	-48,98	
1556,582	-49,01	
1556,584	-49,03	
1556,586	-49,02	
1556,588	-49,01	
1556,590	-49,01	
1556,592	-49,02	
1556,594	-49,01	
1556,596	-49,02	
1556,598	-49,04	
1556,600	-49,10	
1556,602	-49,14	
1556,604	-49,11	
1556,606	-49,14	
1556,608	-49,08	
1556,610	-49,12	
1556,612	-49,18	
1556,614	-49,18	
1556,616	-49,20	
1556,618	-49,23	
1556,620	-49,23	
1556,622	-49,24	
1556,624	-49,26	
1556,626	-49,29	
1556,628	-49,29	
1556,630	-49,30	
1556,632	-49,23	
1556,634	-49,28	
1556,636	-49,32	
1556,638	-49,32	
1556,640	-49,35	
1556,642	-49,39	
1556,644	-49,39	
1556,646	-49,44	
1556,648	-49,44	
1556,650	-49,45	
1556,652	-49,49	
1556,654	-49,44	
1556,656	-49,44	
1556,658	-49,49	
1556,660	-49,52	
1556,662	-49,46	
1556,664	-49,54	
1556,666	-49,52	
1556,668	-49,49	
1556,670	-49,55	
1556,672	-49,60	
1556,674	-49,63	
1556,676	-49,60	
1556,678	-49,56	
1556,680	-49,57	
1556,682	-49,64	
1556,684	-49,66	
1556,686	-49,68	
1556,688	-49,72	
1556,690	-49,70	
1556,692	-49,71	
1556,694	-49,69	
1556,696	-49,66	
1556,698	-49,68	
1556,700	-49,68	
1556,702	-49,71	
1556,704	-49,72	
1556,706	-49,76	
1556,708	-49,81	
1556,710	-49,84	
1556,712	-49,84	
1556,714	-49,87	
1556,716	-49,89	
1556,718	-49,87	
1556,720	-49,88	
1556,722	-49,88	
1556,724	-49,83	
1556,726	-49,85	
1556,728	-49,93	
1556,730	-49,95	
1556,732	-49,91	
1556,734	-49,97	
1556,736	-50,07	
1556,738	-50,03	
1556,740	-49,99	
1556,742	-50,00	
1556,744	-50,02	
1556,746	-50,05	
1556,748	-50,04	
1556,750	-50,03	
1556,752	-50,08	
1556,754	-50,10	
1556,756	-50,11	
1556,758	-50,12	
1556,760	-50,10	
1556,762	-50,13	
1556,764	-50,16	
1556,766	-50,17	
1556,768	-50,16	
1556,770	-50,18	
1556,772	-50,16	
1556,774	-50,21	
1556,776	-50,21	
1556,778	-50,24	
1556,780	-50,24	
1556,782	-50,30	
1556,784	-50,28	
1556,786	-50,24	
1556,788	-50,28	
1556,790	-50,38	
1556,792	-50,34	
1556,794	-50,37	
1556,796	-50,43	
1556,798	-50,39	
1556,800	-50,37	
1556,802	-50,44	
1556,804	-50,38	
1556,806	-50,39	
1556,808	-50,43	
1556,810	-50,43	
1556,812	-50,43	
1556,814	-50,47	
1556,816	-50,50	
1556,818	-50,58	
1556,820	-50,55	
1556,822	-50,55	
1556,824	-50,61	
1556,826	-50,59	
1556,828	-50,59	
1556,830	-50,56	
1556,832	-50,56	
1556,834	-50,60	
1556,836	-50,59	
1556,838	-50,64	
1556,840	-50,66	
1556,842	-50,65	
1556,844	-50,68	
1556,846	-50,71	
1556,848	-50,73	
1556,850	-50,81	
1556,852	-50,85	
1556,854	-50,75	
1556,856	-50,72	
1556,858	-50,69	
1556,860	-50,68	
1556,862	-50,76	
1556,864	-50,77	
1556,866	-50,76	
1556,868	-50,89	
1556,870	-50,78	
1556,872	-50,83	
1556,874	-50,85	
1556,876	-50,85	
1556,878	-50,84	
1556,880	-50,85	
1556,882	-50,91	
1556,884	-50,95	
1556,886	-50,99	
1556,888	-51,02	
1556,890	-50,99	
1556,892	-50,97	
1556,894	-50,96	
1556,896	-50,97	
1556,898	-50,94	
1556,900	-50,97	
1556,902	-51,02	
1556,904	-50,98	
1556,906	-50,96	
1556,908	-51,05	
1556,910	-51,07	
1556,912	-51,03	
1556,914	-51,11	
1556,916	-51,11	
1556,918	-51,12	
1556,920	-51,14	
1556,922	-51,05	
1556,924	-51,07	
1556,926	-51,16	
1556,928	-51,05	
1556,930	-51,12	
1556,932	-51,15	
1556,934	-51,13	
1556,936	-51,18	
1556,938	-51,24	
1556,940	-51,26	
1556,942	-51,31	
1556,944	-51,32	
1556,946	-51,25	
1556,948	-51,30	
1556,950	-51,30	
1556,952	-51,34	
1556,954	-51,31	
1556,956	-51,35	
1556,958	-51,39	
1556,960	-51,34	
1556,962	-51,28	
1556,964	-51,33	
1556,966	-51,32	
1556,968	-51,39	
1556,970	-51,39	
1556,972	-51,39	
1556,974	-51,38	
1556,976	-51,36	
1556,978	-51,30	
1556,980	-51,32	
1556,982	-51,31	
1556,984	-51,40	
1556,986	-51,42	
1556,988	-51,40	
1556,990	-51,42	
1556,992	-51,49	
1556,994	-51,43	
1556,996	-51,51	
1556,998	-51,52	
1557,000	-51,48	
1557,002	-51,45	
1557,004	-51,49	
1557,006	-51,47	
1557,008	-51,49	
1557,010	-51,47	
1557,012	-51,46	
1557,014	-51,54	
1557,016	-51,63	
1557,018	-51,59	
1557,020	-51,59	
1557,022	-51,64	
1557,024	-51,60	
1557,026	-51,52	
1557,028	-51,62	
1557,030	-51,55	
1557,032	-51,62	
1557,034	-51,66	
1557,036	-51,56	
1557,038	-51,72	
1557,040	-51,75	
1557,042	-51,74	
1557,044	-51,71	
1557,046	-51,70	
1557,048	-51,67	
1557,050	-51,70	
1557,052	-51,69	
1557,054	-51,59	
1557,056	-51,66	
1557,058	-51,71	
1557,060	-51,70	
1557,062	-51,85	
1557,064	-51,76	
1557,066	-51,86	
1557,068	-51,81	
1557,070	-51,74	
1557,072	-51,82	
1557,074	-51,82	
1557,076	-51,75	
1557,078	-51,76	
1557,080	-51,79	
1557,082	-51,77	
1557,084	-51,77	
1557,086	-51,86	
1557,088	-51,87	
1557,090	-52,00	
1557,092	-52,04	
1557,094	-51,95	
1557,096	-51,95	
1557,098	-51,81	
1557,100	-51,87	
1557,102	-51,94	
1557,104	-51,88	
1557,106	-51,89	
1557,108	-52,00	
1557,110	-51,96	
1557,112	-52,05	
1557,114	-51,94	
1557,116	-51,98	
1557,118	-52,00	
1557,120	-52,03	
1557,122	-51,94	
1557,124	-52,02	
1557,126	-52,02	
1557,128	-51,96	
1557,130	-52,00	
1557,132	-52,02	
1557,134	-52,01	
1557,136	-52,01	
1557,138	-51,92	
1557,140	-52,01	
1557,142	-52,09	
1557,144	-52,01	
1557,146	-52,14	
1557,148	-51,96	
1557,150	-52,03	
1557,152	-52,02	
1557,154	-52,10	
1557,156	-52,10	
1557,158	-52,05	
1557,160	-52,09	
1557,162	-52,10	
1557,164	-51,95	
1557,166	-52,06	
1557,168	-52,01	
1557,170	-51,97	
1557,172	-52,07	
1557,174	-52,03	
1557,176	-52,08	
1557,178	-52,09	
1557,180	-52,08	
1557,182	-52,14	
1557,184	-52,19	
1557,186	-52,14	
1557,188	-52,11	
1557,190	-52,09	
1557,192	-52,06	
1557,194	-52,07	
1557,196	-52,16	
1557,198	-52,10	
1557,200	-52,17	
1557,202	-52,00	
1557,204	-52,04	
1557,206	-52,09	
1557,208	-52,10	
1557,210	-52,12	
1557,212	-52,17	
1557,214	-52,26	
1557,216	-52,27	
1557,218	-52,20	
1557,220	-52,16	
1557,222	-52,18	
1557,224	-52,16	
1557,226	-52,08	
1557,228	-52,11	
1557,230	-52,08	
1557,232	-52,10	
1557,234	-52,14	
1557,236	-52,18	
1557,238	-52,25	
1557,240	-52,25	
1557,242	-52,20	
1557,244	-52,06	
1557,246	-52,16	
1557,248	-52,18	
1557,250	-52,20	
1557,252	-52,18	
1557,254	-52,19	
1557,256	-52,22	
1557,258	-52,20	
1557,260	-52,19	
1557,262	-52,18	
1557,264	-52,20	
1557,266	-52,16	
1557,268	-52,07	
1557,270	-52,09	
1557,272	-52,14	
1557,274	-52,27	
1557,276	-52,26	
1557,278	-52,30	
1557,280	-52,26	
1557,282	-52,22	
1557,284	-52,23	
1557,286	-52,12	
1557,288	-52,12	
1557,290	-52,14	
1557,292	-52,26	
1557,294	-52,28	
1557,296	-52,25	
1557,298	-52,15	
1557,300	-52,17	
1557,302	-52,27	
1557,304	-52,28	
1557,306	-52,14	
1557,308	-52,14	
1557,310	-52,16	
1557,312	-52,22	
1557,314	-52,17	
1557,316	-52,13	
1557,318	-52,19	
1557,320	-52,19	
1557,322	-52,21	
1557,324	-52,22	
1557,326	-52,22	
1557,328	-52,24	
1557,330	-52,26	
1557,332	-52,21	
1557,334	-52,24	
1557,336	-52,20	
1557,338	-52,18	
1557,340	-52,16	
1557,342	-52,16	
1557,344	-52,24	
1557,346	-52,29	
1557,348	-52,26	
1557,350	-52,28	
1557,352	-52,24	
1557,354	-52,20	
1557,356	-52,25	
1557,358	-52,19	
1557,360	-52,18	
1557,362	-52,24	
1557,364	-52,25	
1557,366	-52,18	
1557,368	-52,34	
1557,370	-52,32	
1557,372	-52,18	
1557,374	-52,23	
1557,376	-52,24	
1557,378	-52,26	
1557,380	-52,28	
1557,382	-52,20	
1557,384	-52,24	
1557,386	-52,29	
1557,388	-52,18	
1557,390	-52,05	
1557,392	-52,11	
1557,394	-52,19	
1557,396	-52,26	
1557,398	-52,22	
1557,400	-52,25	
1557,402	-52,29	
1557,404	-52,18	
1557,406	-52,15	
1557,408	-52,18	
1557,410	-52,18	
1557,412	-52,20	
1557,414	-52,14	
1557,416	-52,08	
1557,418	-52,07	
1557,420	-52,13	
1557,422	-52,17	
1557,424	-52,17	
1557,426	-52,24	
1557,428	-52,25	
1557,430	-52,16	
1557,432	-52,06	
1557,434	-52,03	
1557,436	-52,05	
1557,438	-52,08	
1557,440	-52,01	
1557,442	-52,09	
1557,444	-52,13	
1557,446	-52,09	
1557,448	-52,08	
1557,450	-52,06	
1557,452	-52,01	
1557,454	-52,01	
1557,456	-52,02	
1557,458	-52,05	
1557,460	-51,96	
1557,462	-52,10	
1557,464	-52,12	
1557,466	-52,11	
1557,468	-52,10	
1557,470	-52,03	
1557,472	-51,95	
1557,474	-51,95	
1557,476	-52,01	
1557,478	-52,02	
1557,480	-51,99	
1557,482	-51,98	
1557,484	-51,91	
1557,486	-51,95	
1557,488	-52,06	
1557,490	-52,03	
1557,492	-51,90	
1557,494	-51,94	
1557,496	-51,93	
1557,498	-52,00	
1557,500	-52,06	
1557,502	-52,07	
1557,504	-52,03	
1557,506	-51,98	
1557,508	-51,90	
1557,510	-51,87	
1557,512	-51,89	
1557,514	-52,03	
1557,516	-51,89	
1557,518	-51,90	
1557,520	-52,00	
1557,522	-51,98	
1557,524	-51,91	
1557,526	-51,87	
1557,528	-51,88	
1557,530	-51,91	
1557,532	-51,85	
1557,534	-51,86	
1557,536	-51,79	
1557,538	-51,80	
1557,540	-51,87	
1557,542	-51,80	
1557,544	-51,79	
1557,546	-51,80	
1557,548	-51,96	
1557,550	-51,86	
1557,552	-51,77	
1557,554	-51,80	
1557,556	-51,81	
1557,558	-51,80	
1557,560	-51,75	
1557,562	-51,68	
1557,564	-51,64	
1557,566	-51,63	
1557,568	-51,68	
1557,570	-51,71	
1557,572	-51,82	
1557,574	-51,89	
1557,576	-51,86	
1557,578	-51,81	
1557,580	-51,83	
1557,582	-51,75	
1557,584	-51,63	
1557,586	-51,61	
1557,588	-51,62	
1557,590	-51,70	
1557,592	-51,74	
1557,594	-51,68	
1557,596	-51,67	
1557,598	-51,66	
1557,600	-51,64	
1557,602	-51,67	
1557,604	-51,68	
1557,606	-51,67	
1557,608	-51,71	
1557,610	-51,65	
1557,612	-51,69	
1557,614	-51,71	
1557,616	-51,63	
1557,618	-51,67	
1557,620	-51,63	
1557,622	-51,55	
1557,624	-51,57	
1557,626	-51,60	
1557,628	-51,61	
1557,630	-51,65	
1557,632	-51,60	
1557,634	-51,47	
1557,636	-51,60	
1557,638	-51,57	
1557,640	-51,51	
1557,642	-51,51	
1557,644	-51,53	
1557,646	-51,49	
1557,648	-51,46	
1557,650	-51,49	
1557,652	-51,46	
1557,654	-51,43	
1557,656	-51,45	
1557,658	-51,41	
1557,660	-51,41	
1557,662	-51,45	
1557,664	-51,45	
1557,666	-51,44	
1557,668	-51,45	
1557,670	-51,48	
1557,672	-51,48	
1557,674	-51,48	
1557,676	-51,40	
1557,678	-51,30	
1557,680	-51,42	
1557,682	-51,38	
1557,684	-51,31	
1557,686	-51,30	
1557,688	-51,24	
1557,690	-51,26	
1557,692	-51,32	
1557,694	-51,38	
1557,696	-51,39	
1557,698	-51,32	
1557,700	-51,33	
1557,702	-51,35	
1557,704	-51,25	
1557,706	-51,32	
1557,708	-51,29	
1557,710	-51,26	
1557,712	-51,25	
1557,714	-51,23	
1557,716	-51,20	
1557,718	-51,15	
1557,720	-51,14	
1557,722	-51,19	
1557,724	-51,14	
1557,726	-51,16	
1557,728	-51,23	
1557,730	-51,15	
1557,732	-51,14	
1557,734	-51,17	
1557,736	-51,15	
1557,738	-51,11	
1557,740	-51,15	
1557,742	-51,06	
1557,744	-51,04	
1557,746	-51,06	
1557,748	-51,03	
1557,750	-51,02	
1557,752	-51,06	
1557,754	-51,05	
1557,756	-51,02	
1557,758	-51,04	
1557,760	-50,96	
1557,762	-50,97	
1557,764	-50,95	
1557,766	-50,93	
1557,768	-50,90	
1557,770	-50,97	
1557,772	-50,96	
1557,774	-50,92	
1557,776	-50,96	
1557,778	-50,92	
1557,780	-50,86	
1557,782	-50,86	
1557,784	-50,86	
1557,786	-50,87	
1557,788	-50,84	
1557,790	-50,76	
1557,792	-50,80	
1557,794	-50,84	
1557,796	-50,82	
1557,798	-50,78	
1557,800	-50,73	
1557,802	-50,75	
1557,804	-50,81	
1557,806	-50,79	
1557,808	-50,72	
1557,810	-50,71	
1557,812	-50,75	
1557,814	-50,65	
1557,816	-50,63	
1557,818	-50,64	
1557,820	-50,63	
1557,822	-50,65	
1557,824	-50,63	
1557,826	-50,63	
1557,828	-50,67	
1557,830	-50,60	
1557,832	-50,57	
1557,834	-50,54	
1557,836	-50,47	
1557,838	-50,55	
1557,840	-50,54	
1557,842	-50,51	
1557,844	-50,48	
1557,846	-50,49	
1557,848	-50,48	
1557,850	-50,41	
1557,852	-50,43	
1557,854	-50,45	
1557,856	-50,52	
1557,858	-50,46	
1557,860	-50,47	
1557,862	-50,44	
1557,864	-50,44	
1557,866	-50,39	
1557,868	-50,31	
1557,870	-50,34	
1557,872	-50,32	
1557,874	-50,39	
1557,876	-50,39	
1557,878	-50,34	
1557,880	-50,32	
1557,882	-50,31	
1557,884	-50,29	
1557,886	-50,29	
1557,888	-50,34	
1557,890	-50,32	
1557,892	-50,33	
1557,894	-50,41	
1557,896	-50,34	
1557,898	-50,35	
1557,900	-50,36	
1557,902	-50,22	
1557,904	-50,28	
1557,906	-50,23	
1557,908	-50,19	
1557,910	-50,23	
1557,912	-50,20	
1557,914	-50,24	
1557,916	-50,25	
1557,918	-50,17	
1557,920	-50,18	
1557,922	-50,21	
1557,924	-50,19	
1557,926	-50,16	
1557,928	-50,16	
1557,930	-50,17	
1557,932	-50,16	
1557,934	-50,07	
1557,936	-50,04	
1557,938	-50,09	
1557,940	-50,10	
1557,942	-50,03	
1557,944	-50,06	
1557,946	-50,10	
1557,948	-50,08	
1557,950	-50,05	
1557,952	-50,00	
1557,954	-49,98	
1557,956	-50,05	
1557,958	-50,05	
1557,960	-49,99	
1557,962	-49,98	
1557,964	-49,98	
1557,966	-50,02	
1557,968	-50,01	
1557,970	-49,97	
1557,972	-50,00	
1557,974	-49,91	
1557,976	-49,94	
1557,978	-49,98	
1557,980	-49,99	
1557,982	-49,90	
1557,984	-49,93	
1557,986	-49,88	
1557,988	-49,92	
1557,990	-49,92	
1557,992	-49,90	
1557,994	-49,86	
1557,996	-49,85	
1557,998	-49,85	
1558,000	-49,84	
1558,002	-49,86	
1558,004	-49,82	
1558,006	-49,83	
1558,008	-49,81	
1558,010	-49,81	
1558,012	-49,82	
1558,014	-49,77	
1558,016	-49,73	
1558,018	-49,78	
1558,020	-49,79	
1558,022	-49,73	
1558,024	-49,74	
1558,026	-49,75	
1558,028	-49,73	
1558,030	-49,71	
1558,032	-49,69	
1558,034	-49,64	
1558,036	-49,68	
1558,038	-49,69	
1558,040	-49,72	
1558,042	-49,69	
1558,044	-49,75	
1558,046	-49,73	
1558,048	-49,70	
1558,050	-49,64	
1558,052	-49,63	
1558,054	-49,62	
1558,056	-49,65	
1558,058	-49,61	
1558,060	-49,57	
1558,062	-49,61	
1558,064	-49,66	
1558,066	-49,65	
1558,068	-49,60	
1558,070	-49,59	
1558,072	-49,60	
1558,074	-49,57	
1558,076	-49,56	
1558,078	-49,55	
1558,080	-49,54	
1558,082	-49,50	
1558,084	-49,57	
1558,086	-49,61	
1558,088	-49,59	
1558,090	-49,55	
1558,092	-49,59	
1558,094	-49,55	
1558,096	-49,46	
1558,098	-49,48	
1558,100	-49,47	
1558,102	-49,46	
1558,104	-49,47	
1558,106	-49,49	
1558,108	-49,51	
1558,110	-49,51	
1558,112	-49,49	
1558,114	-49,47	
1558,116	-49,47	
1558,118	-49,49	
1558,120	-49,50	
1558,122	-49,47	
1558,124	-49,45	
1558,126	-49,47	
1558,128	-49,39	
1558,130	-49,44	
1558,132	-49,45	
1558,134	-49,46	
1558,136	-49,45	
1558,138	-49,41	
1558,140	-49,39	
1558,142	-49,38	
1558,144	-49,38	
1558,146	-49,41	
1558,148	-49,39	
1558,150	-49,40	
1558,152	-49,43	
1558,154	-49,44	
1558,156	-49,43	
1558,158	-49,43	
1558,160	-49,42	
1558,162	-49,40	
1558,164	-49,40	
1558,166	-49,37	
1558,168	-49,34	
1558,170	-49,38	
1558,172	-49,40	
1558,174	-49,39	
1558,176	-49,37	
1558,178	-49,38	
1558,180	-49,39	
1558,182	-49,42	
1558,184	-49,39	
1558,186	-49,37	
1558,188	-49,39	
1558,190	-49,43	
1558,192	-49,42	
1558,194	-49,40	
1558,196	-49,34	
1558,198	-49,36	
1558,200	-49,35	
1558,202	-49,40	
1558,204	-49,44	
1558,206	-49,43	
1558,208	-49,39	
1558,210	-49,44	
1558,212	-49,39	
1558,214	-49,40	
1558,216	-49,39	
1558,218	-49,38	
1558,220	-49,34	
1558,222	-49,36	
1558,224	-49,42	
1558,226	-49,42	
1558,228	-49,40	
1558,230	-49,39	
1558,232	-49,35	
1558,234	-49,39	
1558,236	-49,39	
1558,238	-49,38	
1558,240	-49,38	
1558,242	-49,42	
1558,244	-49,44	
1558,246	-49,40	
1558,248	-49,46	
1558,250	-49,44	
1558,252	-49,46	
1558,254	-49,42	
1558,256	-49,36	
1558,258	-49,37	
1558,260	-49,38	
1558,262	-49,40	
1558,264	-49,45	
1558,266	-49,42	
1558,268	-49,45	
1558,270	-49,47	
1558,272	-49,45	
1558,274	-49,48	
1558,276	-49,50	
1558,278	-49,49	
1558,280	-49,53	
1558,282	-49,47	
1558,284	-49,49	
1558,286	-49,49	
1558,288	-49,49	
1558,290	-49,46	
1558,292	-49,43	
1558,294	-49,48	
1558,296	-49,61	
1558,298	-49,58	
1558,300	-49,49	
1558,302	-49,54	
1558,304	-49,57	
1558,306	-49,51	
1558,308	-49,50	
1558,310	-49,49	
1558,312	-49,53	
1558,314	-49,54	
1558,316	-49,58	
1558,318	-49,60	
1558,320	-49,59	
1558,322	-49,55	
1558,324	-49,57	
1558,326	-49,59	
1558,328	-49,64	
1558,330	-49,69	
1558,332	-49,58	
1558,334	-49,57	
1558,336	-49,61	
1558,338	-49,64	
1558,340	-49,62	
1558,342	-49,65	
1558,344	-49,68	
1558,346	-49,67	
1558,348	-49,67	
1558,350	-49,68	
1558,352	-49,68	
1558,354	-49,65	
1558,356	-49,64	
1558,358	-49,70	
1558,360	-49,71	
1558,362	-49,66	
1558,364	-49,70	
1558,366	-49,70	
1558,368	-49,77	
1558,370	-49,73	
1558,372	-49,71	
1558,374	-49,77	
1558,376	-49,83	
1558,378	-49,84	
1558,380	-49,80	
1558,382	-49,77	
1558,384	-49,77	
1558,386	-49,79	
1558,388	-49,80	
1558,390	-49,80	
1558,392	-49,74	
1558,394	-49,76	
1558,396	-49,81	
1558,398	-49,85	
1558,400	-49,82	
1558,402	-49,81	
1558,404	-49,81	
1558,406	-49,83	
1558,408	-49,86	
1558,410	-49,89	
1558,412	-49,92	
1558,414	-49,87	
1558,416	-49,91	
1558,418	-49,99	
1558,420	-49,96	
1558,422	-49,96	
1558,424	-50,02	
1558,426	-49,96	
1558,428	-49,96	
1558,430	-49,93	
1558,432	-49,97	
1558,434	-50,00	
1558,436	-49,99	
1558,438	-50,04	
1558,440	-50,05	
1558,442	-50,00	
1558,444	-50,09	
1558,446	-50,04	
1558,448	-50,10	
1558,450	-50,14	
1558,452	-50,03	
1558,454	-50,07	
1558,456	-50,10	
1558,458	-50,12	
1558,460	-50,12	
1558,462	-50,08	
1558,464	-50,14	
1558,466	-50,05	
1558,468	-50,19	
1558,470	-50,16	
1558,472	-50,12	
1558,474	-50,12	
1558,476	-50,17	
1558,478	-50,20	
1558,480	-50,23	
1558,482	-50,25	
1558,484	-50,22	
1558,486	-50,21	
1558,488	-50,28	
1558,490	-50,21	
1558,492	-50,30	
1558,494	-50,27	
1558,496	-50,24	
1558,498	-50,27	
1558,500	-50,26	
1558,502	-50,30	
1558,504	-50,33	
1558,506	-50,32	
1558,508	-50,34	
1558,510	-50,38	
1558,512	-50,35	
1558,514	-50,33	
1558,516	-50,31	
1558,518	-50,36	
1558,520	-50,39	
1558,522	-50,42	
1558,524	-50,38	
1558,526	-50,38	
1558,528	-50,42	
1558,530	-50,46	
1558,532	-50,48	
1558,534	-50,45	
1558,536	-50,43	
1558,538	-50,46	
1558,540	-50,44	
1558,542	-50,46	
1558,544	-50,44	
1558,546	-50,44	
1558,548	-50,49	
1558,550	-50,53	
1558,552	-50,53	
1558,554	-50,51	
1558,556	-50,59	
1558,558	-50,53	
1558,560	-50,50	
1558,562	-50,58	
1558,564	-50,53	
1558,566	-50,49	
1558,568	-50,52	
1558,570	-50,59	
1558,572	-50,65	
1558,574	-50,70	
1558,576	-50,63	
1558,578	-50,63	
1558,580	-50,67	
1558,582	-50,63	
1558,584	-50,69	
1558,586	-50,67	
1558,588	-50,67	
1558,590	-50,68	
1558,592	-50,71	
1558,594	-50,72	
1558,596	-50,72	
1558,598	-50,73	
1558,600	-50,74	
1558,602	-50,71	
1558,604	-50,76	
1558,606	-50,77	
1558,608	-50,73	
1558,610	-50,80	
1558,612	-50,79	
1558,614	-50,86	
1558,616	-50,87	
1558,618	-50,90	
1558,620	-50,93	
1558,622	-50,90	
1558,624	-50,87	
1558,626	-50,89	
1558,628	-50,93	
1558,630	-50,95	
1558,632	-50,89	
1558,634	-50,92	
1558,636	-51,04	
1558,638	-50,97	
1558,640	-50,98	
1558,642	-51,05	
1558,644	-51,02	
1558,646	-50,89	
1558,648	-50,92	
1558,650	-50,94	
1558,652	-50,89	
1558,654	-50,87	
1558,656	-50,99	
1558,658	-51,08	
1558,660	-51,05	
1558,662	-51,10	
1558,664	-51,16	
1558,666	-51,13	
1558,668	-51,07	
1558,670	-51,16	
1558,672	-51,10	
1558,674	-51,03	
1558,676	-51,06	
1558,678	-51,09	
1558,680	-51,08	
1558,682	-51,07	
1558,684	-51,09	
1558,686	-51,15	
1558,688	-51,21	
1558,690	-51,23	
1558,692	-51,21	
1558,694	-51,22	
1558,696	-51,23	
1558,698	-51,27	
1558,700	-51,33	
1558,702	-51,33	
1558,704	-51,29	
1558,706	-51,25	
1558,708	-51,31	
1558,710	-51,26	
1558,712	-51,29	
1558,714	-51,27	
1558,716	-51,25	
1558,718	-51,27	
1558,720	-51,36	
1558,722	-51,41	
1558,724	-51,45	
1558,726	-51,44	
1558,728	-51,49	
1558,730	-51,50	
1558,732	-51,41	
1558,734	-51,31	
1558,736	-51,36	
1558,738	-51,29	
1558,740	-51,38	
1558,742	-51,40	
1558,744	-51,33	
1558,746	-51,37	
1558,748	-51,51	
1558,750	-51,43	
1558,752	-51,40	
1558,754	-51,45	
1558,756	-51,40	
1558,758	-51,51	
1558,760	-51,57	
1558,762	-51,48	
1558,764	-51,52	
1558,766	-51,50	
1558,768	-51,46	
1558,770	-51,48	
1558,772	-51,45	
1558,774	-51,47	
1558,776	-51,48	
1558,778	-51,47	
1558,780	-51,55	
1558,782	-51,55	
1558,784	-51,50	
1558,786	-51,56	
1558,788	-51,54	
1558,790	-51,58	
1558,792	-51,60	
1558,794	-51,57	
1558,796	-51,55	
1558,798	-51,55	
1558,800	-51,50	
1558,802	-51,55	
1558,804	-51,52	
1558,806	-51,56	
1558,808	-51,60	
1558,810	-51,60	
1558,812	-51,67	
1558,814	-51,65	
1558,816	-51,49	
1558,818	-51,52	
1558,820	-51,59	
1558,822	-51,65	
1558,824	-51,71	
1558,826	-51,73	
1558,828	-51,76	
1558,830	-51,78	
1558,832	-51,73	
1558,834	-51,70	
1558,836	-51,77	
1558,838	-51,79	
1558,840	-51,78	
1558,842	-51,78	
1558,844	-51,74	
1558,846	-51,68	
1558,848	-51,66	
1558,850	-51,72	
1558,852	-51,71	
1558,854	-51,72	
1558,856	-51,80	
1558,858	-51,76	
1558,860	-51,74	
1558,862	-51,81	
1558,864	-51,77	
1558,866	-51,83	
1558,868	-51,82	
1558,870	-51,81	
1558,872	-51,83	
1558,874	-51,80	
1558,876	-51,77	
1558,878	-51,79	
1558,880	-51,76	
1558,882	-51,78	
1558,884	-51,73	
1558,886	-51,71	
1558,888	-51,74	
1558,890	-51,76	
1558,892	-51,81	
1558,894	-51,85	
1558,896	-51,95	
1558,898	-51,90	
1558,900	-51,96	
1558,902	-51,90	
1558,904	-51,94	
1558,906	-51,78	
1558,908	-51,90	
1558,910	-51,75	
1558,912	-51,88	
1558,914	-51,90	
1558,916	-51,86	
1558,918	-51,98	
1558,920	-52,00	
1558,922	-52,03	
1558,924	-51,97	
1558,926	-51,85	
1558,928	-51,89	
1558,930	-51,83	
1558,932	-51,82	
1558,934	-52,03	
1558,936	-51,85	
1558,938	-51,88	
1558,940	-51,93	
1558,942	-51,93	
1558,944	-51,95	
1558,946	-51,82	
1558,948	-51,87	
1558,950	-51,90	
1558,952	-51,91	
1558,954	-51,95	
1558,956	-52,00	
1558,958	-52,05	
1558,960	-52,06	
1558,962	-52,00	
1558,964	-51,98	
1558,966	-51,96	
1558,968	-51,85	
1558,970	-51,94	
1558,972	-52,10	
1558,974	-52,10	
1558,976	-52,05	
1558,978	-52,11	
1558,980	-52,05	
1558,982	-52,08	
1558,984	-52,08	
1558,986	-52,03	
1558,988	-51,99	
1558,990	-51,91	
1558,992	-51,93	
1558,994	-51,97	
1558,996	-52,00	
1558,998	-52,01	
1559,000	-52,01	
1559,002	-52,06	
1559,004	-52,05	
1559,006	-51,96	
1559,008	-52,00	
1559,010	-51,97	
1559,012	-52,00	
1559,014	-52,13	
1559,016	-52,03	
1559,018	-51,95	
1559,020	-52,00	
1559,022	-52,05	
1559,024	-52,13	
1559,026	-52,15	
1559,028	-51,91	
1559,030	-51,92	
1559,032	-51,95	
1559,034	-51,97	
1559,036	-51,97	
1559,038	-51,99	
1559,040	-52,01	
1559,042	-52,00	
1559,044	-52,01	
1559,046	-52,06	
1559,048	-52,04	
1559,050	-52,04	
1559,052	-51,97	
1559,054	-52,00	
1559,056	-52,08	
1559,058	-52,10	
1559,060	-51,98	
1559,062	-52,12	
1559,064	-52,20	
1559,066	-52,02	
1559,068	-51,97	
1559,070	-52,05	
1559,072	-51,97	
1559,074	-52,04	
1559,076	-51,98	
1559,078	-52,01	
1559,080	-52,01	
1559,082	-52,07	
1559,084	-52,06	
1559,086	-52,01	
1559,088	-52,00	
1559,090	-52,06	
1559,092	-52,00	
1559,094	-51,93	
1559,096	-52,06	
1559,098	-51,94	
1559,100	-52,01	
1559,102	-51,94	
1559,104	-52,00	
1559,106	-52,00	
1559,108	-52,02	
1559,110	-52,04	
1559,112	-52,04	
1559,114	-51,96	
1559,116	-51,97	
1559,118	-52,02	
1559,120	-51,93	
1559,122	-51,87	
1559,124	-51,94	
1559,126	-51,96	
1559,128	-51,94	
1559,130	-51,93	
1559,132	-52,04	
1559,134	-52,01	
1559,136	-52,09	
1559,138	-52,08	
1559,140	-52,06	
1559,142	-51,87	
1559,144	-52,03	
1559,146	-51,95	
1559,148	-51,99	
1559,150	-52,01	
1559,152	-51,88	
1559,154	-51,96	
1559,156	-51,93	
1559,158	-51,94	
1559,160	-51,93	
1559,162	-51,88	
1559,164	-51,86	
1559,166	-51,94	
1559,168	-52,00	
1559,170	-51,89	
1559,172	-51,84	
1559,174	-51,85	
1559,176	-51,97	
1559,178	-52,01	
1559,180	-51,97	
1559,182	-51,98	
1559,184	-51,95	
1559,186	-51,84	
1559,188	-51,81	
1559,190	-51,90	
1559,192	-51,99	
1559,194	-51,86	
1559,196	-51,86	
1559,198	-51,78	
1559,200	-51,71	
1559,202	-51,81	
1559,204	-51,83	
1559,206	-51,82	
1559,208	-51,86	
1559,210	-51,88	
1559,212	-51,95	
1559,214	-51,83	
1559,216	-51,81	
1559,218	-51,88	
1559,220	-51,86	
1559,222	-51,83	
1559,224	-51,85	
1559,226	-51,82	
1559,228	-51,75	
1559,230	-51,80	
1559,232	-51,79	
1559,234	-51,78	
1559,236	-51,86	
1559,238	-51,90	
1559,240	-51,87	
1559,242	-51,93	
1559,244	-51,82	
1559,246	-51,82	
1559,248	-51,79	
1559,250	-51,75	
1559,252	-51,74	
1559,254	-51,75	
1559,256	-51,75	
1559,258	-51,77	
1559,260	-51,79	
1559,262	-51,80	
1559,264	-51,76	
1559,266	-51,66	
1559,268	-51,56	
1559,270	-51,70	
1559,272	-51,66	
1559,274	-51,70	
1559,276	-51,67	
1559,278	-51,56	
1559,280	-51,73	
1559,282	-51,62	
1559,284	-51,63	
1559,286	-51,68	
1559,288	-51,56	
1559,290	-51,50	
1559,292	-51,59	
1559,294	-51,65	
1559,296	-51,68	
1559,298	-51,63	
1559,300	-51,52	
1559,302	-51,54	
1559,304	-51,64	
1559,306	-51,63	
1559,308	-51,56	
1559,310	-51,68	
1559,312	-51,71	
1559,314	-51,59	
1559,316	-51,49	
1559,318	-51,60	
1559,320	-51,48	
1559,322	-51,51	
1559,324	-51,56	
1559,326	-51,51	
1559,328	-51,59	
1559,330	-51,62	
1559,332	-51,59	
1559,334	-51,62	
1559,336	-51,42	
1559,338	-51,52	
1559,340	-51,47	
1559,342	-51,46	
1559,344	-51,47	
1559,346	-51,51	
1559,348	-51,45	
1559,350	-51,46	
1559,352	-51,51	
1559,354	-51,51	
1559,356	-51,49	
1559,358	-51,44	
1559,360	-51,38	
1559,362	-51,47	
1559,364	-51,47	
1559,366	-51,33	
1559,368	-51,39	
1559,370	-51,42	
1559,372	-51,39	
1559,374	-51,40	
1559,376	-51,31	
1559,378	-51,28	
1559,380	-51,29	
1559,382	-51,34	
1559,384	-51,35	
1559,386	-51,38	
1559,388	-51,38	
1559,390	-51,31	
1559,392	-51,24	
1559,394	-51,18	
1559,396	-51,21	
1559,398	-51,29	
1559,400	-51,26	
1559,402	-51,26	
1559,404	-51,28	
1559,406	-51,27	
1559,408	-51,33	
1559,410	-51,27	
1559,412	-51,21	
1559,414	-51,15	
1559,416	-51,14	
1559,418	-51,12	
1559,420	-51,11	
1559,422	-51,18	
1559,424	-51,14	
1559,426	-51,25	
1559,428	-51,23	
1559,430	-51,18	
1559,432	-51,16	
1559,434	-51,08	
1559,436	-51,06	
1559,438	-51,03	
1559,440	-50,99	
1559,442	-50,99	
1559,444	-51,08	
1559,446	-51,04	
1559,448	-51,04	
1559,450	-51,09	
1559,452	-51,04	
1559,454	-50,96	
1559,456	-50,95	
1559,458	-50,96	
1559,460	-50,96	
1559,462	-50,97	
1559,464	-51,00	
1559,466	-50,98	
1559,468	-50,95	
1559,470	-50,95	
1559,472	-50,87	
1559,474	-50,90	
1559,476	-50,88	
1559,478	-50,85	
1559,480	-50,85	
1559,482	-50,81	
1559,484	-50,84	
1559,486	-50,78	
1559,488	-50,78	
1559,490	-50,76	
1559,492	-50,81	
1559,494	-50,86	
1559,496	-50,73	
1559,498	-50,71	
1559,500	-50,77	
1559,502	-50,72	
1559,504	-50,79	
1559,506	-50,72	
1559,508	-50,73	
1559,510	-50,63	
1559,512	-50,65	
1559,514	-50,65	
1559,516	-50,68	
1559,518	-50,61	
1559,520	-50,60	
1559,522	-50,61	
1559,524	-50,58	
1559,526	-50,64	
1559,528	-50,58	
1559,530	-50,55	
1559,532	-50,63	
1559,534	-50,56	
1559,536	-50,56	
1559,538	-50,58	
1559,540	-50,44	
1559,542	-50,50	
1559,544	-50,48	
1559,546	-50,48	
1559,548	-50,53	
1559,550	-50,55	
1559,552	-50,52	
1559,554	-50,49	
1559,556	-50,43	
1559,558	-50,36	
1559,560	-50,39	
1559,562	-50,46	
1559,564	-50,38	
1559,566	-50,43	
1559,568	-50,44	
1559,570	-50,40	
1559,572	-50,41	
1559,574	-50,39	
1559,576	-50,34	
1559,578	-50,29	
1559,580	-50,31	
1559,582	-50,33	
1559,584	-50,30	
1559,586	-50,29	
1559,588	-50,30	
1559,590	-50,31	
1559,592	-50,26	
1559,594	-50,29	
1559,596	-50,31	
1559,598	-50,33	
1559,600	-50,29	
1559,602	-50,22	
1559,604	-50,19	
1559,606	-50,21	
1559,608	-50,27	
1559,610	-50,20	
1559,612	-50,14	
1559,614	-50,28	
1559,616	-50,19	
1559,618	-50,17	
1559,620	-50,15	
1559,622	-50,13	
1559,624	-50,13	
1559,626	-50,14	
1559,628	-50,11	
1559,630	-50,11	
1559,632	-50,12	
1559,634	-50,09	
1559,636	-49,99	
1559,638	-50,03	
1559,640	-50,06	
1559,642	-50,03	
1559,644	-50,02	
1559,646	-50,00	
1559,648	-50,03	
1559,650	-50,07	
1559,652	-50,12	
1559,654	-50,06	
1559,656	-49,98	
1559,658	-49,96	
1559,660	-50,01	
1559,662	-49,95	
1559,664	-49,95	
1559,666	-49,93	
1559,668	-49,92	
1559,670	-49,91	
1559,672	-49,90	
1559,674	-49,89	
1559,676	-49,90	
1559,678	-49,86	
1559,680	-49,84	
1559,682	-49,88	
1559,684	-49,89	
1559,686	-49,83	
1559,688	-49,80	
1559,690	-49,75	
1559,692	-49,83	
1559,694	-49,84	
1559,696	-49,79	
1559,698	-49,77	
1559,700	-49,79	
1559,702	-49,75	
1559,704	-49,73	
1559,706	-49,68	
1559,708	-49,72	
1559,710	-49,73	
1559,712	-49,72	
1559,714	-49,74	
1559,716	-49,70	
1559,718	-49,67	
1559,720	-49,67	
1559,722	-49,68	
1559,724	-49,71	
1559,726	-49,71	
1559,728	-49,67	
1559,730	-49,62	
1559,732	-49,66	
1559,734	-49,62	
1559,736	-49,58	
1559,738	-49,59	
1559,740	-49,60	
1559,742	-49,59	
1559,744	-49,53	
1559,746	-49,54	
1559,748	-49,54	
1559,750	-49,52	
1559,752	-49,51	
1559,754	-49,51	
1559,756	-49,54	
1559,758	-49,47	
1559,760	-49,50	
1559,762	-49,50	
1559,764	-49,47	
1559,766	-49,48	
1559,768	-49,49	
1559,770	-49,44	
1559,772	-49,45	
1559,774	-49,44	
1559,776	-49,44	
1559,778	-49,47	
1559,780	-49,46	
1559,782	-49,41	
1559,784	-49,39	
1559,786	-49,41	
1559,788	-49,45	
1559,790	-49,46	
1559,792	-49,40	
1559,794	-49,40	
1559,796	-49,36	
1559,798	-49,32	
1559,800	-49,31	
1559,802	-49,36	
1559,804	-49,32	
1559,806	-49,34	
1559,808	-49,36	
1559,810	-49,33	
1559,812	-49,32	
1559,814	-49,29	
1559,816	-49,27	
1559,818	-49,30	
1559,820	-49,27	
1559,822	-49,31	
1559,824	-49,26	
1559,826	-49,29	
1559,828	-49,31	
1559,830	-49,29	
1559,832	-49,29	
1559,834	-49,26	
1559,836	-49,27	
1559,838	-49,26	
1559,840	-49,26	
1559,842	-49,23	
1559,844	-49,23	
1559,846	-49,24	
1559,848	-49,28	
1559,850	-49,26	
1559,852	-49,26	
1559,854	-49,25	
1559,856	-49,19	
1559,858	-49,20	
1559,860	-49,23	
1559,862	-49,18	
1559,864	-49,20	
1559,866	-49,29	
1559,868	-49,25	
1559,870	-49,25	
1559,872	-49,26	
1559,874	-49,24	
1559,876	-49,24	
1559,878	-49,22	
1559,880	-49,20	
1559,882	-49,23	
1559,884	-49,17	
1559,886	-49,15	
1559,888	-49,16	
1559,890	-49,20	
1559,892	-49,20	
1559,894	-49,20	
1559,896	-49,26	
1559,898	-49,23	
1559,900	-49,15	
1559,902	-49,15	
1559,904	-49,15	
1559,906	-49,24	
1559,908	-49,22	
1559,910	-49,23	
1559,912	-49,23	
1559,914	-49,22	
1559,916	-49,15	
1559,918	-49,12	
1559,920	-49,17	
1559,922	-49,11	
1559,924	-49,17	
1559,926	-49,24	
1559,928	-49,20	
1559,930	-49,20	
1559,932	-49,20	
1559,934	-49,20	
1559,936	-49,24	
1559,938	-49,25	
1559,940	-49,25	
1559,942	-49,27	
1559,944	-49,20	
1559,946	-49,18	
1559,948	-49,19	
1559,950	-49,25	
1559,952	-49,20	
1559,954	-49,26	
1559,956	-49,18	
1559,958	-49,21	
1559,960	-49,25	
1559,962	-49,23	
1559,964	-49,21	
1559,966	-49,19	
1559,968	-49,15	
1559,970	-49,14	
1559,972	-49,18	
1559,974	-49,15	
1559,976	-49,13	
1559,978	-49,23	
1559,980	-49,23	
1559,982	-49,20	
1559,984	-49,21	
1559,986	-49,22	
1559,988	-49,20	
1559,990	-49,23	
1559,992	-49,22	
1559,994	-49,18	
1559,996	-49,27	
1559,998	-49,20	
1560,000	-49,25	


