OSA WDM Report

Results

Trace Identification

File name:  	
Job ID:  	
Cable ID:  	
Fiber ID:  	
Customer:  	
Company:  	
Operator:  	
Maintenance reason:  	
Link ID:  	530
Orientation:  	None
System:  	
Network element:  	None
Test point:  	None
Description:  	
Comments:  	

Acquisition Conditions

Acquisition type:  	Real Time
Number of scans:  	1
Spectral range start:  	1547,000 nm
Spectral range stop:  	1553,000 nm
User calibration:  	Factory
Calibration date:  	2017-12-22
Acquisition start time:  	2025-10-01 15:18:44
Acquisition stop time:  	2025-10-01 15:18:47
Hardware model:  	FTBx-5245-EA
Serial number:  	1085217
RBW value:  	0,041 nm

Global Results

Average signal power:  	-28,36 dBm
Signal power flatness:  	---
Average OSNR:  	33,62 dB
OSNR flatness:  	---
Total power in scan range:  	-28,33 dBm
Channel count:  	1
Empty channel count:  	0

Global Test Result

Status:  	Not Active

Channel Results

Ch.#	Name	λ (nm)	Δλ (nm)	λ Peak (nm)	∆λ Peak (nm)	Signal Power (dBm)	OSNR (dB)	NoisedBm	Bandwidth 3,00 dB (nm)	Bandwidth 20,00 dB (nm)	ENBW (nm)	Transmitter Trace	Warning	
1	C_001	1549,014	0,000	1549,007	-0,007	(i) -28,36	33,62	(IEC) -61,97	0,036	0,124	0,041	---	---	


Analysis Parameters

Default Channel Analysis

Activate default channel:  	ON
Snap to ITU grid:  	OFF
Channel width:  	20,000 nm
Signal power calculation:  	Integrated signal power
Noise for OSNR:  	Fixed range IEC based
OSNR distance:  	10,000 nm
Noise region:  	0,080 nm

Default Channel Thresholds

Signal power min.:  	-45,00 dBm
Signal power max.:  	15,00 dBm
Noise min.:  	-99,99 dBm
Noise max.:  	-40,00 dBm
OSNR min.:  	5,00 dB
OSNR max.:  	60,00 dB
Wavelength max. dev. ±:  	0,020 nm

Global Analysis

Peak detection level:  	-29,00 dBm
RBW for OSNR:  	0,400 nm
Wavelength offset:  	0,000 nm
Power offset:  	0,00 dB
Bandwidth at:  	20,00 dB

Global Thresholds

Average signal power min.:  	-45,00 dBm
Average signal power max.:  	15,00 dBm
Signal power flatness max.:  	1,00 dB
Average OSNR min.:  	5,00 dB
Average OSNR max.:  	60,00 dB
OSNR flatness max.:  	10,00 dB

Channel List

Name	λ (nm)	Channel Width	Signal Power	Noise for OSNR	Transmitter Trace	OSNR Distance	Noise Region	Signal Power Min. (dBm)	Signal Power Max. (dBm)	Noise Min. (dBm)	Noise Max. (dBm)	OSNR Min. (dB)	OSNR Max. (dB)	Wavelength Max. Dev. (nm)	
C_001	1549,014	20,000 nm	Integrated signal power	Fixed range IEC based	---	10,000 nm	0,080 nm	-45,00	15,00	-99,99	-40,00	5,00	60,00	0,020	

Graph

λ (nm)	Power (dBm)	
1547,000	-72,41	
1547,002	-73,43	
1547,004	-69,70	
1547,006	-73,43	
1547,008	-73,43	
1547,010	-69,55	
1547,012	-67,70	
1547,014	-71,44	
1547,016	-70,97	
1547,018	-71,71	
1547,020	-73,43	
1547,022	-73,43	
1547,024	-73,43	
1547,026	-73,43	
1547,028	-73,43	
1547,030	-73,43	
1547,032	-73,43	
1547,034	-69,41	
1547,036	-69,66	
1547,038	-70,89	
1547,040	-70,27	
1547,042	-73,43	
1547,044	-73,43	
1547,046	-73,43	
1547,048	-73,43	
1547,050	-70,91	
1547,052	-73,43	
1547,054	-73,14	
1547,056	-73,43	
1547,058	-72,52	
1547,060	-71,52	
1547,062	-73,43	
1547,064	-73,43	
1547,066	-72,19	
1547,068	-69,67	
1547,070	-73,43	
1547,072	-73,43	
1547,074	-73,43	
1547,076	-73,43	
1547,078	-73,43	
1547,080	-73,43	
1547,082	-73,11	
1547,084	-70,14	
1547,086	-73,43	
1547,088	-70,70	
1547,090	-71,91	
1547,092	-70,63	
1547,094	-70,10	
1547,096	-73,43	
1547,098	-72,51	
1547,100	-73,43	
1547,102	-72,10	
1547,104	-73,43	
1547,106	-73,43	
1547,108	-70,30	
1547,110	-70,08	
1547,112	-69,26	
1547,114	-71,92	
1547,116	-73,43	
1547,118	-73,43	
1547,120	-73,43	
1547,122	-73,43	
1547,124	-71,62	
1547,126	-73,43	
1547,128	-73,43	
1547,130	-73,43	
1547,132	-73,43	
1547,134	-71,43	
1547,136	-73,35	
1547,138	-66,95	
1547,140	-70,06	
1547,142	-73,43	
1547,144	-72,54	
1547,146	-73,43	
1547,148	-73,43	
1547,150	-73,43	
1547,152	-73,43	
1547,154	-73,43	
1547,156	-73,43	
1547,158	-73,43	
1547,160	-73,43	
1547,162	-73,43	
1547,164	-73,43	
1547,166	-73,17	
1547,168	-73,10	
1547,170	-69,98	
1547,172	-71,87	
1547,174	-70,53	
1547,176	-70,56	
1547,178	-71,18	
1547,180	-71,97	
1547,182	-72,89	
1547,184	-70,13	
1547,186	-73,43	
1547,188	-73,43	
1547,190	-73,43	
1547,192	-71,62	
1547,194	-68,09	
1547,196	-68,15	
1547,198	-70,06	
1547,200	-73,43	
1547,202	-73,43	
1547,204	-71,11	
1547,206	-73,43	
1547,208	-73,43	
1547,210	-73,43	
1547,212	-73,43	
1547,214	-73,43	
1547,216	-65,64	
1547,218	-71,31	
1547,220	-72,17	
1547,222	-72,16	
1547,224	-73,43	
1547,226	-73,43	
1547,228	-73,43	
1547,230	-73,43	
1547,232	-73,25	
1547,234	-72,58	
1547,236	-73,43	
1547,238	-69,15	
1547,240	-70,23	
1547,242	-72,02	
1547,244	-73,05	
1547,246	-73,43	
1547,248	-73,43	
1547,250	-73,43	
1547,252	-73,43	
1547,254	-73,43	
1547,256	-73,43	
1547,258	-73,43	
1547,260	-70,02	
1547,262	-73,39	
1547,264	-73,43	
1547,266	-73,43	
1547,268	-73,43	
1547,270	-73,43	
1547,272	-73,43	
1547,274	-73,43	
1547,276	-71,09	
1547,278	-73,43	
1547,280	-73,43	
1547,282	-73,43	
1547,284	-73,43	
1547,286	-73,14	
1547,288	-73,43	
1547,290	-73,43	
1547,292	-70,64	
1547,294	-69,73	
1547,296	-73,12	
1547,298	-73,43	
1547,300	-73,43	
1547,302	-73,43	
1547,304	-73,43	
1547,306	-72,20	
1547,308	-68,45	
1547,310	-70,05	
1547,312	-69,48	
1547,314	-72,56	
1547,316	-73,43	
1547,318	-73,09	
1547,320	-73,43	
1547,322	-73,43	
1547,324	-72,06	
1547,326	-73,43	
1547,328	-73,43	
1547,330	-73,43	
1547,332	-70,20	
1547,334	-73,22	
1547,336	-73,43	
1547,338	-73,43	
1547,340	-73,43	
1547,342	-73,43	
1547,344	-73,43	
1547,346	-71,96	
1547,348	-73,43	
1547,350	-73,43	
1547,352	-73,43	
1547,354	-68,75	
1547,356	-71,79	
1547,358	-73,43	
1547,360	-73,43	
1547,362	-73,43	
1547,364	-70,28	
1547,366	-73,43	
1547,368	-73,43	
1547,370	-73,43	
1547,372	-73,43	
1547,374	-73,43	
1547,376	-72,12	
1547,378	-73,43	
1547,380	-69,02	
1547,382	-73,43	
1547,384	-73,43	
1547,386	-73,43	
1547,388	-73,43	
1547,390	-69,94	
1547,392	-70,93	
1547,394	-73,43	
1547,396	-73,43	
1547,398	-72,74	
1547,400	-73,43	
1547,402	-73,43	
1547,404	-70,17	
1547,406	-73,43	
1547,408	-73,43	
1547,410	-72,76	
1547,412	-73,43	
1547,414	-73,43	
1547,416	-68,94	
1547,418	-73,43	
1547,420	-73,43	
1547,422	-73,43	
1547,424	-70,11	
1547,426	-67,41	
1547,428	-73,43	
1547,430	-73,43	
1547,432	-73,43	
1547,434	-73,43	
1547,436	-73,43	
1547,438	-73,43	
1547,440	-73,43	
1547,442	-73,43	
1547,444	-73,02	
1547,446	-71,99	
1547,448	-73,43	
1547,450	-73,43	
1547,452	-71,16	
1547,454	-69,15	
1547,456	-73,43	
1547,458	-73,43	
1547,460	-73,43	
1547,462	-73,43	
1547,464	-73,43	
1547,466	-73,43	
1547,468	-73,43	
1547,470	-73,43	
1547,472	-73,43	
1547,474	-73,43	
1547,476	-73,43	
1547,478	-72,10	
1547,480	-68,64	
1547,482	-69,87	
1547,484	-69,66	
1547,486	-68,89	
1547,488	-70,69	
1547,490	-73,43	
1547,492	-73,43	
1547,494	-73,43	
1547,496	-73,43	
1547,498	-73,43	
1547,500	-73,43	
1547,502	-73,43	
1547,504	-73,43	
1547,506	-71,88	
1547,508	-73,43	
1547,510	-73,43	
1547,512	-73,43	
1547,514	-73,43	
1547,516	-73,43	
1547,518	-73,43	
1547,520	-73,43	
1547,522	-73,43	
1547,524	-73,43	
1547,526	-69,94	
1547,528	-71,25	
1547,530	-73,43	
1547,532	-73,43	
1547,534	-73,43	
1547,536	-73,43	
1547,538	-73,43	
1547,540	-73,43	
1547,542	-73,43	
1547,544	-73,43	
1547,546	-72,08	
1547,548	-73,43	
1547,550	-72,99	
1547,552	-72,10	
1547,554	-73,43	
1547,556	-73,43	
1547,558	-73,43	
1547,560	-73,43	
1547,562	-73,43	
1547,564	-69,01	
1547,566	-70,73	
1547,568	-73,43	
1547,570	-70,89	
1547,572	-72,25	
1547,574	-73,43	
1547,576	-73,43	
1547,578	-73,43	
1547,580	-73,43	
1547,582	-73,43	
1547,584	-73,43	
1547,586	-73,43	
1547,588	-73,43	
1547,590	-65,71	
1547,592	-68,29	
1547,594	-71,32	
1547,596	-73,43	
1547,598	-73,43	
1547,600	-73,43	
1547,602	-73,43	
1547,604	-73,43	
1547,606	-73,43	
1547,608	-73,43	
1547,610	-73,43	
1547,612	-73,43	
1547,614	-71,60	
1547,616	-73,43	
1547,618	-70,54	
1547,620	-72,78	
1547,622	-73,43	
1547,624	-73,43	
1547,626	-73,43	
1547,628	-70,65	
1547,630	-69,62	
1547,632	-71,64	
1547,634	-73,43	
1547,636	-67,26	
1547,638	-67,58	
1547,640	-69,08	
1547,642	-69,03	
1547,644	-69,40	
1547,646	-71,59	
1547,648	-73,43	
1547,650	-73,43	
1547,652	-73,43	
1547,654	-73,43	
1547,656	-73,43	
1547,658	-73,43	
1547,660	-73,43	
1547,662	-73,43	
1547,664	-73,43	
1547,666	-73,43	
1547,668	-73,43	
1547,670	-73,43	
1547,672	-73,43	
1547,674	-73,43	
1547,676	-72,40	
1547,678	-73,43	
1547,680	-73,43	
1547,682	-73,43	
1547,684	-73,43	
1547,686	-73,10	
1547,688	-72,18	
1547,690	-69,09	
1547,692	-73,43	
1547,694	-73,43	
1547,696	-73,43	
1547,698	-73,43	
1547,700	-73,43	
1547,702	-73,43	
1547,704	-71,27	
1547,706	-73,43	
1547,708	-73,43	
1547,710	-73,43	
1547,712	-73,43	
1547,714	-73,43	
1547,716	-73,43	
1547,718	-73,43	
1547,720	-72,62	
1547,722	-73,43	
1547,724	-71,53	
1547,726	-73,43	
1547,728	-73,43	
1547,730	-71,15	
1547,732	-73,43	
1547,734	-72,53	
1547,736	-69,39	
1547,738	-73,16	
1547,740	-71,70	
1547,742	-73,43	
1547,744	-73,43	
1547,746	-73,43	
1547,748	-73,43	
1547,750	-71,31	
1547,752	-69,59	
1547,754	-73,43	
1547,756	-73,11	
1547,758	-71,72	
1547,760	-71,39	
1547,762	-70,09	
1547,764	-73,35	
1547,766	-73,43	
1547,768	-73,43	
1547,770	-73,43	
1547,772	-73,43	
1547,774	-73,43	
1547,776	-73,43	
1547,778	-66,49	
1547,780	-69,05	
1547,782	-72,50	
1547,784	-72,99	
1547,786	-73,43	
1547,788	-73,43	
1547,790	-72,58	
1547,792	-68,60	
1547,794	-73,43	
1547,796	-73,43	
1547,798	-73,43	
1547,800	-73,43	
1547,802	-73,43	
1547,804	-73,17	
1547,806	-69,01	
1547,808	-73,14	
1547,810	-73,43	
1547,812	-73,43	
1547,814	-73,43	
1547,816	-73,43	
1547,818	-73,43	
1547,820	-73,43	
1547,822	-72,75	
1547,824	-71,15	
1547,826	-68,48	
1547,828	-73,43	
1547,830	-73,43	
1547,832	-68,75	
1547,834	-68,51	
1547,836	-72,25	
1547,838	-73,43	
1547,840	-73,43	
1547,842	-73,43	
1547,844	-73,43	
1547,846	-72,77	
1547,848	-69,94	
1547,850	-73,43	
1547,852	-70,51	
1547,854	-68,55	
1547,856	-73,43	
1547,858	-73,43	
1547,860	-69,59	
1547,862	-73,43	
1547,864	-73,43	
1547,866	-73,43	
1547,868	-72,14	
1547,870	-73,43	
1547,872	-73,43	
1547,874	-73,43	
1547,876	-73,43	
1547,878	-73,43	
1547,880	-73,43	
1547,882	-73,43	
1547,884	-72,60	
1547,886	-73,43	
1547,888	-73,43	
1547,890	-72,00	
1547,892	-73,43	
1547,894	-73,43	
1547,896	-68,87	
1547,898	-68,86	
1547,900	-70,58	
1547,902	-73,43	
1547,904	-73,43	
1547,906	-68,70	
1547,908	-72,00	
1547,910	-68,25	
1547,912	-69,50	
1547,914	-73,43	
1547,916	-71,87	
1547,918	-73,43	
1547,920	-73,43	
1547,922	-70,63	
1547,924	-73,43	
1547,926	-73,43	
1547,928	-73,43	
1547,930	-73,43	
1547,932	-73,43	
1547,934	-73,43	
1547,936	-73,43	
1547,938	-73,43	
1547,940	-73,43	
1547,942	-73,43	
1547,944	-72,90	
1547,946	-73,43	
1547,948	-73,43	
1547,950	-73,43	
1547,952	-73,43	
1547,954	-73,43	
1547,956	-73,43	
1547,958	-73,43	
1547,960	-70,81	
1547,962	-72,38	
1547,964	-73,43	
1547,966	-73,43	
1547,968	-73,43	
1547,970	-73,43	
1547,972	-73,43	
1547,974	-72,57	
1547,976	-70,38	
1547,978	-68,21	
1547,980	-67,02	
1547,982	-69,10	
1547,984	-71,43	
1547,986	-73,43	
1547,988	-73,43	
1547,990	-70,25	
1547,992	-73,43	
1547,994	-73,43	
1547,996	-73,43	
1547,998	-73,02	
1548,000	-73,43	
1548,002	-73,43	
1548,004	-73,43	
1548,006	-73,43	
1548,008	-73,43	
1548,010	-73,43	
1548,012	-73,43	
1548,014	-70,57	
1548,016	-71,10	
1548,018	-73,43	
1548,020	-73,43	
1548,022	-72,91	
1548,024	-69,76	
1548,026	-73,43	
1548,028	-69,20	
1548,030	-73,43	
1548,032	-73,43	
1548,034	-73,43	
1548,036	-73,43	
1548,038	-73,39	
1548,040	-73,43	
1548,042	-73,08	
1548,044	-73,43	
1548,046	-73,43	
1548,048	-73,27	
1548,050	-69,21	
1548,052	-73,43	
1548,054	-73,43	
1548,056	-73,43	
1548,058	-73,43	
1548,060	-73,43	
1548,062	-70,73	
1548,064	-70,46	
1548,066	-73,43	
1548,068	-71,70	
1548,070	-71,97	
1548,072	-72,42	
1548,074	-69,26	
1548,076	-73,43	
1548,078	-73,43	
1548,080	-73,43	
1548,082	-73,43	
1548,084	-70,51	
1548,086	-73,43	
1548,088	-73,43	
1548,090	-73,43	
1548,092	-71,24	
1548,094	-70,13	
1548,096	-72,96	
1548,098	-73,43	
1548,100	-73,43	
1548,102	-73,11	
1548,104	-73,43	
1548,106	-73,43	
1548,108	-72,10	
1548,110	-70,55	
1548,112	-73,43	
1548,114	-73,43	
1548,116	-71,43	
1548,118	-73,43	
1548,120	-73,43	
1548,122	-73,43	
1548,124	-72,28	
1548,126	-67,92	
1548,128	-70,75	
1548,130	-73,43	
1548,132	-73,43	
1548,134	-73,43	
1548,136	-73,43	
1548,138	-73,43	
1548,140	-73,43	
1548,142	-73,43	
1548,144	-69,65	
1548,146	-72,02	
1548,148	-73,43	
1548,150	-71,62	
1548,152	-70,71	
1548,154	-73,43	
1548,156	-73,43	
1548,158	-73,43	
1548,160	-71,23	
1548,162	-73,43	
1548,164	-73,43	
1548,166	-73,43	
1548,168	-73,43	
1548,170	-73,43	
1548,172	-73,43	
1548,174	-73,43	
1548,176	-73,43	
1548,178	-73,43	
1548,180	-73,43	
1548,182	-70,90	
1548,184	-71,68	
1548,186	-73,43	
1548,188	-73,43	
1548,190	-70,94	
1548,192	-73,43	
1548,194	-73,43	
1548,196	-73,13	
1548,198	-69,19	
1548,200	-68,79	
1548,202	-73,43	
1548,204	-73,43	
1548,206	-73,43	
1548,208	-70,46	
1548,210	-70,67	
1548,212	-71,04	
1548,214	-73,43	
1548,216	-73,43	
1548,218	-73,43	
1548,220	-67,40	
1548,222	-73,43	
1548,224	-73,43	
1548,226	-73,43	
1548,228	-73,43	
1548,230	-73,43	
1548,232	-73,43	
1548,234	-73,43	
1548,236	-73,43	
1548,238	-73,43	
1548,240	-71,59	
1548,242	-73,43	
1548,244	-73,43	
1548,246	-73,43	
1548,248	-73,43	
1548,250	-73,43	
1548,252	-68,92	
1548,254	-73,43	
1548,256	-73,43	
1548,258	-69,16	
1548,260	-70,81	
1548,262	-72,11	
1548,264	-73,43	
1548,266	-68,85	
1548,268	-66,20	
1548,270	-72,43	
1548,272	-73,43	
1548,274	-73,43	
1548,276	-73,43	
1548,278	-73,43	
1548,280	-73,43	
1548,282	-73,43	
1548,284	-73,43	
1548,286	-73,43	
1548,288	-73,43	
1548,290	-73,43	
1548,292	-71,95	
1548,294	-73,43	
1548,296	-70,45	
1548,298	-72,08	
1548,300	-73,43	
1548,302	-73,43	
1548,304	-73,43	
1548,306	-73,43	
1548,308	-73,43	
1548,310	-72,91	
1548,312	-73,43	
1548,314	-73,43	
1548,316	-71,94	
1548,318	-73,43	
1548,320	-73,43	
1548,322	-73,43	
1548,324	-73,43	
1548,326	-73,43	
1548,328	-73,43	
1548,330	-73,43	
1548,332	-73,43	
1548,334	-73,34	
1548,336	-73,43	
1548,338	-67,99	
1548,340	-73,43	
1548,342	-73,43	
1548,344	-71,76	
1548,346	-73,43	
1548,348	-73,43	
1548,350	-73,43	
1548,352	-73,43	
1548,354	-73,43	
1548,356	-73,43	
1548,358	-73,43	
1548,360	-73,23	
1548,362	-73,43	
1548,364	-68,72	
1548,366	-73,43	
1548,368	-73,43	
1548,370	-70,96	
1548,372	-73,43	
1548,374	-73,43	
1548,376	-72,88	
1548,378	-73,43	
1548,380	-73,43	
1548,382	-73,43	
1548,384	-71,49	
1548,386	-73,43	
1548,388	-73,43	
1548,390	-71,09	
1548,392	-73,43	
1548,394	-73,43	
1548,396	-73,43	
1548,398	-71,50	
1548,400	-73,43	
1548,402	-71,13	
1548,404	-69,09	
1548,406	-73,43	
1548,408	-73,43	
1548,410	-73,43	
1548,412	-73,43	
1548,414	-73,43	
1548,416	-73,43	
1548,418	-73,43	
1548,420	-73,43	
1548,422	-73,43	
1548,424	-73,43	
1548,426	-73,43	
1548,428	-73,43	
1548,430	-73,43	
1548,432	-73,43	
1548,434	-73,43	
1548,436	-73,43	
1548,438	-71,64	
1548,440	-70,75	
1548,442	-73,32	
1548,444	-69,18	
1548,446	-73,43	
1548,448	-73,43	
1548,450	-73,43	
1548,452	-73,43	
1548,454	-73,43	
1548,456	-73,43	
1548,458	-71,94	
1548,460	-71,14	
1548,462	-73,43	
1548,464	-73,43	
1548,466	-71,91	
1548,468	-71,21	
1548,470	-73,43	
1548,472	-73,43	
1548,474	-73,43	
1548,476	-73,03	
1548,478	-73,43	
1548,480	-73,43	
1548,482	-73,43	
1548,484	-73,37	
1548,486	-70,01	
1548,488	-69,86	
1548,490	-68,86	
1548,492	-70,70	
1548,494	-71,81	
1548,496	-70,09	
1548,498	-72,35	
1548,500	-73,43	
1548,502	-73,43	
1548,504	-73,43	
1548,506	-73,43	
1548,508	-73,43	
1548,510	-73,43	
1548,512	-72,11	
1548,514	-73,43	
1548,516	-71,49	
1548,518	-73,43	
1548,520	-73,03	
1548,522	-73,43	
1548,524	-73,43	
1548,526	-73,43	
1548,528	-73,43	
1548,530	-71,03	
1548,532	-70,53	
1548,534	-73,43	
1548,536	-73,43	
1548,538	-69,13	
1548,540	-73,43	
1548,542	-73,43	
1548,544	-73,43	
1548,546	-73,43	
1548,548	-73,43	
1548,550	-73,43	
1548,552	-73,43	
1548,554	-73,43	
1548,556	-73,43	
1548,558	-72,61	
1548,560	-73,43	
1548,562	-73,43	
1548,564	-73,43	
1548,566	-73,43	
1548,568	-69,08	
1548,570	-72,38	
1548,572	-68,55	
1548,574	-71,33	
1548,576	-67,78	
1548,578	-69,93	
1548,580	-73,43	
1548,582	-73,43	
1548,584	-73,43	
1548,586	-73,43	
1548,588	-73,43	
1548,590	-73,43	
1548,592	-73,43	
1548,594	-73,43	
1548,596	-67,86	
1548,598	-68,70	
1548,600	-73,24	
1548,602	-70,93	
1548,604	-73,43	
1548,606	-71,56	
1548,608	-71,79	
1548,610	-73,43	
1548,612	-73,43	
1548,614	-73,43	
1548,616	-73,43	
1548,618	-73,43	
1548,620	-73,43	
1548,622	-73,43	
1548,624	-69,90	
1548,626	-69,88	
1548,628	-73,43	
1548,630	-73,43	
1548,632	-68,87	
1548,634	-69,28	
1548,636	-68,56	
1548,638	-73,43	
1548,640	-73,43	
1548,642	-73,43	
1548,644	-73,43	
1548,646	-73,43	
1548,648	-73,43	
1548,650	-70,57	
1548,652	-67,08	
1548,654	-73,43	
1548,656	-73,43	
1548,658	-73,43	
1548,660	-73,43	
1548,662	-73,43	
1548,664	-73,43	
1548,666	-73,43	
1548,668	-73,43	
1548,670	-68,45	
1548,672	-73,43	
1548,674	-73,43	
1548,676	-73,43	
1548,678	-71,74	
1548,680	-67,45	
1548,682	-73,43	
1548,684	-73,43	
1548,686	-71,14	
1548,688	-73,43	
1548,690	-73,43	
1548,692	-72,45	
1548,694	-69,51	
1548,696	-73,43	
1548,698	-68,07	
1548,700	-70,10	
1548,702	-69,96	
1548,704	-71,32	
1548,706	-71,60	
1548,708	-69,40	
1548,710	-68,42	
1548,712	-71,63	
1548,714	-73,43	
1548,716	-68,99	
1548,718	-73,43	
1548,720	-73,43	
1548,722	-73,43	
1548,724	-73,43	
1548,726	-73,43	
1548,728	-73,43	
1548,730	-71,56	
1548,732	-73,43	
1548,734	-73,43	
1548,736	-73,43	
1548,738	-73,43	
1548,740	-73,43	
1548,742	-73,43	
1548,744	-73,43	
1548,746	-73,43	
1548,748	-73,43	
1548,750	-71,60	
1548,752	-73,43	
1548,754	-67,45	
1548,756	-67,45	
1548,758	-73,43	
1548,760	-67,82	
1548,762	-70,73	
1548,764	-73,43	
1548,766	-73,43	
1548,768	-73,43	
1548,770	-73,43	
1548,772	-73,43	
1548,774	-73,43	
1548,776	-72,55	
1548,778	-65,88	
1548,780	-70,37	
1548,782	-71,93	
1548,784	-73,43	
1548,786	-73,43	
1548,788	-73,43	
1548,790	-73,43	
1548,792	-72,19	
1548,794	-70,91	
1548,796	-68,46	
1548,798	-67,37	
1548,800	-73,43	
1548,802	-65,74	
1548,804	-68,89	
1548,806	-72,44	
1548,808	-72,55	
1548,810	-73,43	
1548,812	-72,88	
1548,814	-69,30	
1548,816	-68,41	
1548,818	-73,43	
1548,820	-73,43	
1548,822	-73,43	
1548,824	-73,43	
1548,826	-68,40	
1548,828	-71,48	
1548,830	-72,35	
1548,832	-68,74	
1548,834	-69,02	
1548,836	-68,58	
1548,838	-67,13	
1548,840	-67,85	
1548,842	-69,68	
1548,844	-68,79	
1548,846	-70,72	
1548,848	-66,40	
1548,850	-66,07	
1548,852	-67,74	
1548,854	-66,38	
1548,856	-67,22	
1548,858	-70,16	
1548,860	-66,09	
1548,862	-66,50	
1548,864	-67,19	
1548,866	-68,14	
1548,868	-69,27	
1548,870	-69,69	
1548,872	-67,05	
1548,874	-65,39	
1548,876	-70,48	
1548,878	-67,36	
1548,880	-66,18	
1548,882	-64,58	
1548,884	-64,24	
1548,886	-64,63	
1548,888	-63,91	
1548,890	-63,26	
1548,892	-65,19	
1548,894	-64,82	
1548,896	-63,64	
1548,898	-62,80	
1548,900	-62,30	
1548,902	-61,98	
1548,904	-61,92	
1548,906	-61,34	
1548,908	-60,53	
1548,910	-60,09	
1548,912	-59,32	
1548,914	-59,25	
1548,916	-58,25	
1548,918	-57,83	
1548,920	-56,90	
1548,922	-56,24	
1548,924	-55,52	
1548,926	-54,78	
1548,928	-54,16	
1548,930	-53,47	
1548,932	-52,63	
1548,934	-52,21	
1548,936	-51,73	
1548,938	-50,91	
1548,940	-50,28	
1548,942	-49,68	
1548,944	-49,14	
1548,946	-48,58	
1548,948	-47,81	
1548,950	-47,04	
1548,952	-46,37	
1548,954	-45,59	
1548,956	-44,66	
1548,958	-43,94	
1548,960	-43,23	
1548,962	-42,51	
1548,964	-41,61	
1548,966	-40,60	
1548,968	-39,89	
1548,970	-39,12	
1548,972	-38,27	
1548,974	-37,53	
1548,976	-36,73	
1548,978	-35,73	
1548,980	-34,86	
1548,982	-34,02	
1548,984	-33,11	
1548,986	-32,33	
1548,988	-31,72	
1548,990	-31,02	
1548,992	-30,54	
1548,994	-29,94	
1548,996	-29,35	
1548,998	-28,98	
1549,000	-28,71	
1549,002	-28,52	
1549,004	-28,39	
1549,006	-28,32	
1549,008	-28,33	
1549,010	-28,45	
1549,012	-28,65	
1549,014	-28,83	
1549,016	-29,17	
1549,018	-29,45	
1549,020	-29,92	
1549,022	-30,36	
1549,024	-30,99	
1549,026	-31,68	
1549,028	-32,20	
1549,030	-33,03	
1549,032	-33,93	
1549,034	-34,67	
1549,036	-35,32	
1549,038	-35,98	
1549,040	-36,83	
1549,042	-37,83	
1549,044	-38,67	
1549,046	-39,34	
1549,048	-40,21	
1549,050	-41,10	
1549,052	-41,83	
1549,054	-42,68	
1549,056	-43,46	
1549,058	-44,26	
1549,060	-45,12	
1549,062	-45,81	
1549,064	-46,44	
1549,066	-46,94	
1549,068	-47,55	
1549,070	-48,21	
1549,072	-48,64	
1549,074	-49,31	
1549,076	-50,04	
1549,078	-50,58	
1549,080	-51,12	
1549,082	-51,60	
1549,084	-52,25	
1549,086	-52,99	
1549,088	-53,85	
1549,090	-54,70	
1549,092	-55,31	
1549,094	-55,76	
1549,096	-56,42	
1549,098	-56,97	
1549,100	-57,39	
1549,102	-57,92	
1549,104	-58,30	
1549,106	-58,69	
1549,108	-59,66	
1549,110	-60,18	
1549,112	-61,38	
1549,114	-61,25	
1549,116	-62,88	
1549,118	-63,34	
1549,120	-63,28	
1549,122	-63,53	
1549,124	-64,71	
1549,126	-63,83	
1549,128	-62,65	
1549,130	-63,74	
1549,132	-65,49	
1549,134	-64,47	
1549,136	-65,76	
1549,138	-67,80	
1549,140	-68,51	
1549,142	-66,05	
1549,144	-65,90	
1549,146	-66,59	
1549,148	-65,47	
1549,150	-66,23	
1549,152	-66,23	
1549,154	-66,12	
1549,156	-66,85	
1549,158	-66,35	
1549,160	-66,53	
1549,162	-67,15	
1549,164	-66,09	
1549,166	-67,33	
1549,168	-69,00	
1549,170	-65,27	
1549,172	-64,25	
1549,174	-67,90	
1549,176	-68,72	
1549,178	-67,28	
1549,180	-70,89	
1549,182	-73,43	
1549,184	-71,36	
1549,186	-70,82	
1549,188	-67,81	
1549,190	-67,10	
1549,192	-69,46	
1549,194	-68,76	
1549,196	-66,37	
1549,198	-67,48	
1549,200	-68,12	
1549,202	-68,49	
1549,204	-71,36	
1549,206	-73,43	
1549,208	-70,40	
1549,210	-70,38	
1549,212	-70,31	
1549,214	-71,11	
1549,216	-67,03	
1549,218	-67,69	
1549,220	-67,44	
1549,222	-68,86	
1549,224	-71,82	
1549,226	-67,78	
1549,228	-68,09	
1549,230	-73,03	
1549,232	-73,43	
1549,234	-73,43	
1549,236	-73,43	
1549,238	-73,43	
1549,240	-71,32	
1549,242	-70,00	
1549,244	-66,88	
1549,246	-72,85	
1549,248	-73,43	
1549,250	-73,43	
1549,252	-70,43	
1549,254	-69,53	
1549,256	-71,28	
1549,258	-70,92	
1549,260	-69,87	
1549,262	-69,81	
1549,264	-69,35	
1549,266	-72,72	
1549,268	-73,43	
1549,270	-73,43	
1549,272	-73,43	
1549,274	-73,43	
1549,276	-67,23	
1549,278	-71,78	
1549,280	-73,43	
1549,282	-73,43	
1549,284	-73,43	
1549,286	-71,70	
1549,288	-72,53	
1549,290	-73,43	
1549,292	-73,43	
1549,294	-70,87	
1549,296	-73,43	
1549,298	-73,43	
1549,300	-73,43	
1549,302	-73,43	
1549,304	-73,43	
1549,306	-70,13	
1549,308	-68,24	
1549,310	-73,43	
1549,312	-67,69	
1549,314	-73,43	
1549,316	-73,43	
1549,318	-70,16	
1549,320	-73,43	
1549,322	-73,43	
1549,324	-71,31	
1549,326	-71,98	
1549,328	-73,43	
1549,330	-73,43	
1549,332	-73,43	
1549,334	-73,43	
1549,336	-73,43	
1549,338	-73,43	
1549,340	-73,43	
1549,342	-70,58	
1549,344	-71,14	
1549,346	-73,43	
1549,348	-73,43	
1549,350	-71,12	
1549,352	-71,48	
1549,354	-70,87	
1549,356	-69,27	
1549,358	-70,26	
1549,360	-73,43	
1549,362	-72,79	
1549,364	-70,89	
1549,366	-73,43	
1549,368	-70,09	
1549,370	-73,43	
1549,372	-73,43	
1549,374	-73,43	
1549,376	-73,43	
1549,378	-73,43	
1549,380	-73,43	
1549,382	-70,71	
1549,384	-73,43	
1549,386	-73,43	
1549,388	-73,43	
1549,390	-73,43	
1549,392	-73,43	
1549,394	-67,46	
1549,396	-73,43	
1549,398	-69,39	
1549,400	-73,43	
1549,402	-73,43	
1549,404	-70,58	
1549,406	-73,43	
1549,408	-73,43	
1549,410	-73,43	
1549,412	-73,43	
1549,414	-73,43	
1549,416	-70,06	
1549,418	-67,27	
1549,420	-69,49	
1549,422	-73,43	
1549,424	-73,43	
1549,426	-71,44	
1549,428	-69,43	
1549,430	-73,43	
1549,432	-73,43	
1549,434	-69,45	
1549,436	-73,43	
1549,438	-73,43	
1549,440	-73,43	
1549,442	-73,43	
1549,444	-69,57	
1549,446	-71,62	
1549,448	-71,61	
1549,450	-68,14	
1549,452	-67,89	
1549,454	-73,43	
1549,456	-73,43	
1549,458	-73,43	
1549,460	-73,43	
1549,462	-72,87	
1549,464	-66,59	
1549,466	-69,43	
1549,468	-71,59	
1549,470	-73,43	
1549,472	-72,52	
1549,474	-71,28	
1549,476	-73,43	
1549,478	-73,43	
1549,480	-73,43	
1549,482	-73,43	
1549,484	-73,43	
1549,486	-73,43	
1549,488	-73,43	
1549,490	-73,43	
1549,492	-73,43	
1549,494	-73,43	
1549,496	-73,43	
1549,498	-73,43	
1549,500	-73,43	
1549,502	-69,21	
1549,504	-71,30	
1549,506	-71,40	
1549,508	-71,64	
1549,510	-73,43	
1549,512	-73,43	
1549,514	-72,09	
1549,516	-73,43	
1549,518	-72,20	
1549,520	-73,43	
1549,522	-73,43	
1549,524	-73,43	
1549,526	-73,43	
1549,528	-73,43	
1549,530	-73,43	
1549,532	-73,43	
1549,534	-73,43	
1549,536	-71,80	
1549,538	-73,43	
1549,540	-73,43	
1549,542	-70,77	
1549,544	-68,31	
1549,546	-68,75	
1549,548	-73,43	
1549,550	-73,30	
1549,552	-69,70	
1549,554	-70,53	
1549,556	-73,43	
1549,558	-73,43	
1549,560	-73,43	
1549,562	-73,43	
1549,564	-73,43	
1549,566	-71,56	
1549,568	-73,43	
1549,570	-73,43	
1549,572	-73,43	
1549,574	-73,43	
1549,576	-73,43	
1549,578	-73,43	
1549,580	-73,43	
1549,582	-73,43	
1549,584	-73,43	
1549,586	-72,33	
1549,588	-73,14	
1549,590	-69,61	
1549,592	-69,10	
1549,594	-69,52	
1549,596	-71,79	
1549,598	-72,98	
1549,600	-70,89	
1549,602	-71,21	
1549,604	-73,43	
1549,606	-73,43	
1549,608	-73,43	
1549,610	-73,43	
1549,612	-73,43	
1549,614	-73,43	
1549,616	-71,47	
1549,618	-70,81	
1549,620	-71,92	
1549,622	-73,43	
1549,624	-71,49	
1549,626	-65,96	
1549,628	-73,25	
1549,630	-73,43	
1549,632	-73,43	
1549,634	-73,43	
1549,636	-73,43	
1549,638	-70,18	
1549,640	-69,68	
1549,642	-73,43	
1549,644	-73,43	
1549,646	-71,21	
1549,648	-70,35	
1549,650	-73,43	
1549,652	-68,48	
1549,654	-73,43	
1549,656	-73,43	
1549,658	-73,30	
1549,660	-73,43	
1549,662	-73,43	
1549,664	-73,43	
1549,666	-73,43	
1549,668	-73,43	
1549,670	-73,21	
1549,672	-73,43	
1549,674	-73,43	
1549,676	-73,43	
1549,678	-73,43	
1549,680	-73,43	
1549,682	-73,43	
1549,684	-69,27	
1549,686	-73,17	
1549,688	-73,43	
1549,690	-73,43	
1549,692	-73,43	
1549,694	-68,83	
1549,696	-72,04	
1549,698	-73,43	
1549,700	-73,43	
1549,702	-73,43	
1549,704	-73,43	
1549,706	-72,91	
1549,708	-71,27	
1549,710	-73,43	
1549,712	-73,43	
1549,714	-73,43	
1549,716	-73,43	
1549,718	-73,43	
1549,720	-71,22	
1549,722	-72,85	
1549,724	-73,43	
1549,726	-73,43	
1549,728	-73,43	
1549,730	-73,43	
1549,732	-73,43	
1549,734	-73,43	
1549,736	-73,43	
1549,738	-73,43	
1549,740	-73,43	
1549,742	-73,43	
1549,744	-73,43	
1549,746	-73,43	
1549,748	-73,43	
1549,750	-73,43	
1549,752	-72,57	
1549,754	-71,00	
1549,756	-71,91	
1549,758	-69,76	
1549,760	-73,43	
1549,762	-73,43	
1549,764	-70,31	
1549,766	-73,43	
1549,768	-73,28	
1549,770	-73,43	
1549,772	-71,88	
1549,774	-73,43	
1549,776	-73,43	
1549,778	-73,43	
1549,780	-68,30	
1549,782	-70,29	
1549,784	-73,43	
1549,786	-73,43	
1549,788	-73,43	
1549,790	-73,43	
1549,792	-73,43	
1549,794	-70,82	
1549,796	-73,43	
1549,798	-68,56	
1549,800	-73,43	
1549,802	-71,98	
1549,804	-70,38	
1549,806	-70,65	
1549,808	-73,43	
1549,810	-73,43	
1549,812	-73,43	
1549,814	-70,33	
1549,816	-73,43	
1549,818	-69,34	
1549,820	-73,43	
1549,822	-72,84	
1549,824	-68,98	
1549,826	-73,43	
1549,828	-73,43	
1549,830	-73,43	
1549,832	-73,43	
1549,834	-73,43	
1549,836	-73,43	
1549,838	-73,43	
1549,840	-70,23	
1549,842	-73,43	
1549,844	-73,43	
1549,846	-73,43	
1549,848	-73,43	
1549,850	-73,43	
1549,852	-73,43	
1549,854	-73,43	
1549,856	-67,94	
1549,858	-73,43	
1549,860	-73,43	
1549,862	-72,39	
1549,864	-72,47	
1549,866	-73,07	
1549,868	-69,38	
1549,870	-69,52	
1549,872	-72,42	
1549,874	-73,43	
1549,876	-73,43	
1549,878	-73,43	
1549,880	-73,43	
1549,882	-73,43	
1549,884	-73,43	
1549,886	-73,43	
1549,888	-73,43	
1549,890	-70,42	
1549,892	-70,68	
1549,894	-71,80	
1549,896	-72,08	
1549,898	-70,64	
1549,900	-73,43	
1549,902	-70,00	
1549,904	-73,43	
1549,906	-73,43	
1549,908	-73,43	
1549,910	-73,43	
1549,912	-73,43	
1549,914	-71,10	
1549,916	-73,21	
1549,918	-73,43	
1549,920	-73,43	
1549,922	-73,43	
1549,924	-73,43	
1549,926	-73,43	
1549,928	-73,43	
1549,930	-71,83	
1549,932	-73,43	
1549,934	-73,43	
1549,936	-71,86	
1549,938	-67,72	
1549,940	-73,43	
1549,942	-73,43	
1549,944	-73,43	
1549,946	-73,43	
1549,948	-72,46	
1549,950	-69,24	
1549,952	-73,43	
1549,954	-73,43	
1549,956	-69,07	
1549,958	-68,10	
1549,960	-73,43	
1549,962	-73,43	
1549,964	-73,43	
1549,966	-73,43	
1549,968	-73,43	
1549,970	-73,43	
1549,972	-70,34	
1549,974	-73,40	
1549,976	-73,43	
1549,978	-73,43	
1549,980	-72,17	
1549,982	-73,43	
1549,984	-68,91	
1549,986	-67,88	
1549,988	-71,18	
1549,990	-72,43	
1549,992	-73,43	
1549,994	-73,43	
1549,996	-73,43	
1549,998	-71,83	
1550,000	-72,91	
1550,002	-73,43	
1550,004	-73,43	
1550,006	-73,43	
1550,008	-69,92	
1550,010	-73,43	
1550,012	-70,88	
1550,014	-70,78	
1550,016	-73,43	
1550,018	-73,43	
1550,020	-69,03	
1550,022	-73,43	
1550,024	-73,43	
1550,026	-73,43	
1550,028	-73,43	
1550,030	-73,43	
1550,032	-73,43	
1550,034	-69,17	
1550,036	-68,44	
1550,038	-69,33	
1550,040	-68,48	
1550,042	-68,01	
1550,044	-72,35	
1550,046	-73,43	
1550,048	-73,43	
1550,050	-73,43	
1550,052	-73,43	
1550,054	-72,34	
1550,056	-72,34	
1550,058	-73,43	
1550,060	-73,43	
1550,062	-71,75	
1550,064	-73,43	
1550,066	-73,43	
1550,068	-73,43	
1550,070	-73,43	
1550,072	-73,43	
1550,074	-73,43	
1550,076	-73,43	
1550,078	-73,22	
1550,080	-67,85	
1550,082	-67,00	
1550,084	-73,26	
1550,086	-73,43	
1550,088	-73,43	
1550,090	-71,74	
1550,092	-69,76	
1550,094	-73,43	
1550,096	-73,43	
1550,098	-73,43	
1550,100	-73,43	
1550,102	-73,43	
1550,104	-73,43	
1550,106	-73,43	
1550,108	-73,43	
1550,110	-70,84	
1550,112	-70,35	
1550,114	-73,43	
1550,116	-73,43	
1550,118	-73,43	
1550,120	-73,43	
1550,122	-73,43	
1550,124	-73,43	
1550,126	-73,43	
1550,128	-73,10	
1550,130	-73,43	
1550,132	-73,43	
1550,134	-73,43	
1550,136	-73,43	
1550,138	-73,43	
1550,140	-73,43	
1550,142	-73,43	
1550,144	-73,43	
1550,146	-73,43	
1550,148	-73,43	
1550,150	-73,43	
1550,152	-73,43	
1550,154	-73,43	
1550,156	-73,43	
1550,158	-70,16	
1550,160	-69,01	
1550,162	-72,40	
1550,164	-73,43	
1550,166	-71,37	
1550,168	-69,76	
1550,170	-70,67	
1550,172	-66,25	
1550,174	-73,43	
1550,176	-72,96	
1550,178	-73,43	
1550,180	-73,43	
1550,182	-73,43	
1550,184	-72,60	
1550,186	-69,64	
1550,188	-73,43	
1550,190	-73,43	
1550,192	-73,43	
1550,194	-71,53	
1550,196	-73,43	
1550,198	-73,43	
1550,200	-71,53	
1550,202	-69,48	
1550,204	-70,72	
1550,206	-70,29	
1550,208	-73,43	
1550,210	-73,43	
1550,212	-73,43	
1550,214	-73,43	
1550,216	-73,43	
1550,218	-73,43	
1550,220	-73,43	
1550,222	-73,43	
1550,224	-72,94	
1550,226	-70,57	
1550,228	-73,43	
1550,230	-73,43	
1550,232	-73,43	
1550,234	-72,67	
1550,236	-73,43	
1550,238	-70,64	
1550,240	-67,67	
1550,242	-72,87	
1550,244	-70,65	
1550,246	-73,43	
1550,248	-70,81	
1550,250	-73,43	
1550,252	-73,43	
1550,254	-73,43	
1550,256	-73,43	
1550,258	-73,43	
1550,260	-73,43	
1550,262	-73,43	
1550,264	-73,43	
1550,266	-73,11	
1550,268	-70,97	
1550,270	-71,94	
1550,272	-73,00	
1550,274	-72,59	
1550,276	-73,43	
1550,278	-73,43	
1550,280	-73,43	
1550,282	-73,43	
1550,284	-69,38	
1550,286	-72,99	
1550,288	-73,13	
1550,290	-72,42	
1550,292	-69,77	
1550,294	-72,34	
1550,296	-73,43	
1550,298	-73,43	
1550,300	-73,43	
1550,302	-73,43	
1550,304	-69,47	
1550,306	-69,92	
1550,308	-70,78	
1550,310	-73,43	
1550,312	-73,43	
1550,314	-73,43	
1550,316	-72,57	
1550,318	-69,58	
1550,320	-69,95	
1550,322	-73,43	
1550,324	-73,43	
1550,326	-73,43	
1550,328	-73,43	
1550,330	-72,48	
1550,332	-69,86	
1550,334	-73,43	
1550,336	-73,43	
1550,338	-73,43	
1550,340	-73,43	
1550,342	-73,43	
1550,344	-73,43	
1550,346	-73,43	
1550,348	-73,43	
1550,350	-73,43	
1550,352	-73,43	
1550,354	-73,43	
1550,356	-73,43	
1550,358	-73,43	
1550,360	-73,43	
1550,362	-73,43	
1550,364	-73,43	
1550,366	-69,94	
1550,368	-71,17	
1550,370	-68,05	
1550,372	-73,43	
1550,374	-73,43	
1550,376	-69,64	
1550,378	-67,60	
1550,380	-70,47	
1550,382	-73,43	
1550,384	-73,43	
1550,386	-73,43	
1550,388	-73,43	
1550,390	-72,50	
1550,392	-69,80	
1550,394	-67,75	
1550,396	-68,40	
1550,398	-71,58	
1550,400	-71,38	
1550,402	-72,26	
1550,404	-69,69	
1550,406	-73,43	
1550,408	-72,06	
1550,410	-73,43	
1550,412	-73,43	
1550,414	-70,88	
1550,416	-73,43	
1550,418	-73,43	
1550,420	-71,73	
1550,422	-73,43	
1550,424	-73,43	
1550,426	-73,43	
1550,428	-73,43	
1550,430	-73,43	
1550,432	-73,43	
1550,434	-73,43	
1550,436	-71,73	
1550,438	-71,08	
1550,440	-73,43	
1550,442	-69,60	
1550,444	-73,43	
1550,446	-73,43	
1550,448	-73,43	
1550,450	-73,43	
1550,452	-73,43	
1550,454	-73,43	
1550,456	-73,43	
1550,458	-73,43	
1550,460	-70,50	
1550,462	-73,43	
1550,464	-73,30	
1550,466	-70,67	
1550,468	-68,19	
1550,470	-68,19	
1550,472	-69,34	
1550,474	-69,61	
1550,476	-73,43	
1550,478	-73,43	
1550,480	-73,43	
1550,482	-73,43	
1550,484	-68,43	
1550,486	-71,90	
1550,488	-73,43	
1550,490	-73,43	
1550,492	-73,43	
1550,494	-73,43	
1550,496	-73,43	
1550,498	-73,43	
1550,500	-73,43	
1550,502	-73,43	
1550,504	-72,55	
1550,506	-69,73	
1550,508	-69,64	
1550,510	-68,77	
1550,512	-73,43	
1550,514	-71,73	
1550,516	-72,73	
1550,518	-73,43	
1550,520	-70,61	
1550,522	-71,33	
1550,524	-72,81	
1550,526	-71,26	
1550,528	-70,91	
1550,530	-73,43	
1550,532	-73,43	
1550,534	-73,43	
1550,536	-73,43	
1550,538	-73,43	
1550,540	-73,43	
1550,542	-73,43	
1550,544	-73,43	
1550,546	-73,43	
1550,548	-73,43	
1550,550	-73,43	
1550,552	-70,98	
1550,554	-72,31	
1550,556	-73,43	
1550,558	-72,46	
1550,560	-70,99	
1550,562	-69,75	
1550,564	-69,41	
1550,566	-73,43	
1550,568	-73,43	
1550,570	-72,35	
1550,572	-70,32	
1550,574	-70,47	
1550,576	-70,73	
1550,578	-71,96	
1550,580	-73,43	
1550,582	-73,43	
1550,584	-71,67	
1550,586	-73,43	
1550,588	-69,41	
1550,590	-72,35	
1550,592	-73,43	
1550,594	-72,23	
1550,596	-72,62	
1550,598	-71,42	
1550,600	-70,54	
1550,602	-69,42	
1550,604	-69,16	
1550,606	-73,43	
1550,608	-68,80	
1550,610	-73,43	
1550,612	-73,43	
1550,614	-73,43	
1550,616	-70,77	
1550,618	-73,43	
1550,620	-73,43	
1550,622	-73,43	
1550,624	-73,43	
1550,626	-70,64	
1550,628	-71,93	
1550,630	-73,43	
1550,632	-73,43	
1550,634	-73,43	
1550,636	-73,43	
1550,638	-73,43	
1550,640	-73,43	
1550,642	-69,74	
1550,644	-68,80	
1550,646	-73,43	
1550,648	-73,43	
1550,650	-67,91	
1550,652	-68,02	
1550,654	-73,43	
1550,656	-73,43	
1550,658	-72,75	
1550,660	-73,43	
1550,662	-73,43	
1550,664	-73,43	
1550,666	-71,20	
1550,668	-71,07	
1550,670	-70,81	
1550,672	-73,21	
1550,674	-69,81	
1550,676	-73,43	
1550,678	-73,43	
1550,680	-71,21	
1550,682	-73,43	
1550,684	-73,43	
1550,686	-73,43	
1550,688	-73,43	
1550,690	-73,43	
1550,692	-73,43	
1550,694	-73,43	
1550,696	-73,43	
1550,698	-70,79	
1550,700	-73,43	
1550,702	-73,06	
1550,704	-73,43	
1550,706	-73,43	
1550,708	-73,43	
1550,710	-69,83	
1550,712	-70,88	
1550,714	-73,05	
1550,716	-72,59	
1550,718	-71,99	
1550,720	-70,62	
1550,722	-70,25	
1550,724	-73,43	
1550,726	-73,43	
1550,728	-73,43	
1550,730	-73,43	
1550,732	-71,23	
1550,734	-73,43	
1550,736	-73,43	
1550,738	-73,43	
1550,740	-73,43	
1550,742	-67,70	
1550,744	-66,32	
1550,746	-70,93	
1550,748	-73,43	
1550,750	-68,88	
1550,752	-73,43	
1550,754	-73,43	
1550,756	-73,43	
1550,758	-73,43	
1550,760	-66,20	
1550,762	-65,34	
1550,764	-68,46	
1550,766	-73,43	
1550,768	-73,43	
1550,770	-73,43	
1550,772	-72,40	
1550,774	-73,43	
1550,776	-73,43	
1550,778	-73,43	
1550,780	-73,43	
1550,782	-70,86	
1550,784	-69,47	
1550,786	-70,59	
1550,788	-69,60	
1550,790	-69,62	
1550,792	-71,88	
1550,794	-72,87	
1550,796	-72,52	
1550,798	-73,21	
1550,800	-72,48	
1550,802	-73,43	
1550,804	-73,43	
1550,806	-73,43	
1550,808	-69,79	
1550,810	-73,43	
1550,812	-73,43	
1550,814	-73,43	
1550,816	-70,49	
1550,818	-71,05	
1550,820	-70,39	
1550,822	-66,79	
1550,824	-66,64	
1550,826	-65,87	
1550,828	-68,00	
1550,830	-67,60	
1550,832	-66,71	
1550,834	-73,06	
1550,836	-73,43	
1550,838	-73,43	
1550,840	-73,43	
1550,842	-73,43	
1550,844	-73,43	
1550,846	-73,43	
1550,848	-73,43	
1550,850	-73,43	
1550,852	-69,20	
1550,854	-68,24	
1550,856	-68,50	
1550,858	-69,68	
1550,860	-70,31	
1550,862	-67,54	
1550,864	-70,43	
1550,866	-73,43	
1550,868	-73,43	
1550,870	-73,43	
1550,872	-72,01	
1550,874	-71,26	
1550,876	-73,43	
1550,878	-72,39	
1550,880	-67,01	
1550,882	-67,71	
1550,884	-73,43	
1550,886	-73,43	
1550,888	-73,43	
1550,890	-73,43	
1550,892	-73,43	
1550,894	-72,81	
1550,896	-72,81	
1550,898	-71,67	
1550,900	-73,43	
1550,902	-70,86	
1550,904	-73,43	
1550,906	-73,43	
1550,908	-73,43	
1550,910	-73,43	
1550,912	-73,16	
1550,914	-73,43	
1550,916	-73,43	
1550,918	-72,07	
1550,920	-73,43	
1550,922	-70,16	
1550,924	-73,43	
1550,926	-73,43	
1550,928	-73,43	
1550,930	-73,43	
1550,932	-69,36	
1550,934	-72,26	
1550,936	-72,83	
1550,938	-73,19	
1550,940	-71,42	
1550,942	-68,83	
1550,944	-69,51	
1550,946	-71,14	
1550,948	-66,35	
1550,950	-66,68	
1550,952	-67,10	
1550,954	-73,43	
1550,956	-73,43	
1550,958	-71,16	
1550,960	-69,28	
1550,962	-73,43	
1550,964	-68,50	
1550,966	-73,43	
1550,968	-68,50	
1550,970	-73,43	
1550,972	-71,44	
1550,974	-70,75	
1550,976	-73,43	
1550,978	-73,43	
1550,980	-72,40	
1550,982	-73,43	
1550,984	-73,43	
1550,986	-68,71	
1550,988	-73,43	
1550,990	-73,43	
1550,992	-73,43	
1550,994	-73,43	
1550,996	-73,43	
1550,998	-73,03	
1551,000	-67,59	
1551,002	-73,43	
1551,004	-68,76	
1551,006	-73,43	
1551,008	-67,86	
1551,010	-69,31	
1551,012	-73,43	
1551,014	-71,88	
1551,016	-69,18	
1551,018	-68,71	
1551,020	-68,14	
1551,022	-70,01	
1551,024	-73,43	
1551,026	-73,43	
1551,028	-73,43	
1551,030	-73,43	
1551,032	-73,43	
1551,034	-73,43	
1551,036	-73,43	
1551,038	-73,43	
1551,040	-71,85	
1551,042	-68,74	
1551,044	-70,14	
1551,046	-73,43	
1551,048	-73,43	
1551,050	-73,43	
1551,052	-70,52	
1551,054	-67,09	
1551,056	-67,49	
1551,058	-69,06	
1551,060	-68,33	
1551,062	-68,14	
1551,064	-67,55	
1551,066	-70,43	
1551,068	-73,43	
1551,070	-72,09	
1551,072	-73,43	
1551,074	-73,43	
1551,076	-73,43	
1551,078	-73,43	
1551,080	-70,10	
1551,082	-73,43	
1551,084	-73,43	
1551,086	-70,25	
1551,088	-67,47	
1551,090	-70,38	
1551,092	-71,27	
1551,094	-67,81	
1551,096	-70,40	
1551,098	-73,24	
1551,100	-73,43	
1551,102	-73,43	
1551,104	-71,16	
1551,106	-73,43	
1551,108	-73,43	
1551,110	-70,34	
1551,112	-69,96	
1551,114	-73,43	
1551,116	-73,43	
1551,118	-73,42	
1551,120	-73,43	
1551,122	-73,43	
1551,124	-70,36	
1551,126	-70,05	
1551,128	-73,43	
1551,130	-73,43	
1551,132	-70,88	
1551,134	-72,16	
1551,136	-73,43	
1551,138	-73,43	
1551,140	-69,78	
1551,142	-72,87	
1551,144	-69,61	
1551,146	-71,11	
1551,148	-73,43	
1551,150	-73,43	
1551,152	-73,43	
1551,154	-70,89	
1551,156	-70,95	
1551,158	-70,50	
1551,160	-70,96	
1551,162	-72,46	
1551,164	-70,35	
1551,166	-68,56	
1551,168	-73,43	
1551,170	-68,66	
1551,172	-71,42	
1551,174	-69,83	
1551,176	-72,24	
1551,178	-73,43	
1551,180	-73,43	
1551,182	-73,43	
1551,184	-71,87	
1551,186	-73,07	
1551,188	-69,83	
1551,190	-72,66	
1551,192	-73,43	
1551,194	-68,54	
1551,196	-67,68	
1551,198	-70,16	
1551,200	-69,86	
1551,202	-69,75	
1551,204	-70,49	
1551,206	-69,99	
1551,208	-70,55	
1551,210	-69,91	
1551,212	-73,43	
1551,214	-73,43	
1551,216	-73,43	
1551,218	-73,43	
1551,220	-73,43	
1551,222	-73,43	
1551,224	-73,43	
1551,226	-73,43	
1551,228	-73,29	
1551,230	-71,00	
1551,232	-69,69	
1551,234	-67,68	
1551,236	-67,67	
1551,238	-69,88	
1551,240	-73,43	
1551,242	-73,20	
1551,244	-73,43	
1551,246	-73,43	
1551,248	-73,43	
1551,250	-68,01	
1551,252	-73,43	
1551,254	-72,58	
1551,256	-73,43	
1551,258	-73,34	
1551,260	-72,29	
1551,262	-72,44	
1551,264	-73,43	
1551,266	-73,43	
1551,268	-71,86	
1551,270	-72,65	
1551,272	-73,43	
1551,274	-73,43	
1551,276	-73,43	
1551,278	-73,43	
1551,280	-73,43	
1551,282	-73,43	
1551,284	-73,43	
1551,286	-73,43	
1551,288	-73,43	
1551,290	-73,43	
1551,292	-73,43	
1551,294	-73,43	
1551,296	-72,43	
1551,298	-72,16	
1551,300	-71,80	
1551,302	-68,48	
1551,304	-70,94	
1551,306	-73,43	
1551,308	-73,43	
1551,310	-73,43	
1551,312	-73,43	
1551,314	-73,43	
1551,316	-73,43	
1551,318	-73,43	
1551,320	-73,43	
1551,322	-67,22	
1551,324	-68,37	
1551,326	-73,43	
1551,328	-73,41	
1551,330	-73,43	
1551,332	-73,43	
1551,334	-73,43	
1551,336	-69,08	
1551,338	-72,12	
1551,340	-73,43	
1551,342	-73,43	
1551,344	-66,77	
1551,346	-69,08	
1551,348	-73,43	
1551,350	-71,96	
1551,352	-70,49	
1551,354	-71,21	
1551,356	-73,43	
1551,358	-73,43	
1551,360	-73,43	
1551,362	-73,43	
1551,364	-73,43	
1551,366	-70,63	
1551,368	-69,88	
1551,370	-68,32	
1551,372	-73,43	
1551,374	-73,43	
1551,376	-73,06	
1551,378	-70,89	
1551,380	-73,43	
1551,382	-73,43	
1551,384	-73,43	
1551,386	-73,43	
1551,388	-71,82	
1551,390	-70,50	
1551,392	-70,02	
1551,394	-69,48	
1551,396	-70,13	
1551,398	-69,77	
1551,400	-69,17	
1551,402	-73,43	
1551,404	-69,17	
1551,406	-69,22	
1551,408	-73,43	
1551,410	-73,43	
1551,412	-73,43	
1551,414	-73,43	
1551,416	-73,43	
1551,418	-73,43	
1551,420	-73,43	
1551,422	-73,43	
1551,424	-72,01	
1551,426	-72,79	
1551,428	-73,43	
1551,430	-73,43	
1551,432	-73,43	
1551,434	-72,06	
1551,436	-68,31	
1551,438	-70,33	
1551,440	-73,43	
1551,442	-73,43	
1551,444	-73,43	
1551,446	-73,43	
1551,448	-73,43	
1551,450	-73,43	
1551,452	-73,43	
1551,454	-72,91	
1551,456	-71,52	
1551,458	-73,43	
1551,460	-66,86	
1551,462	-71,86	
1551,464	-73,43	
1551,466	-73,43	
1551,468	-73,43	
1551,470	-73,43	
1551,472	-73,43	
1551,474	-73,43	
1551,476	-72,78	
1551,478	-72,36	
1551,480	-69,13	
1551,482	-67,95	
1551,484	-69,61	
1551,486	-70,92	
1551,488	-73,43	
1551,490	-73,43	
1551,492	-73,43	
1551,494	-73,43	
1551,496	-73,43	
1551,498	-73,43	
1551,500	-73,43	
1551,502	-69,58	
1551,504	-70,88	
1551,506	-73,43	
1551,508	-71,58	
1551,510	-73,43	
1551,512	-69,25	
1551,514	-73,43	
1551,516	-66,78	
1551,518	-70,77	
1551,520	-68,27	
1551,522	-73,43	
1551,524	-73,43	
1551,526	-71,35	
1551,528	-72,09	
1551,530	-73,43	
1551,532	-71,32	
1551,534	-70,68	
1551,536	-73,43	
1551,538	-73,43	
1551,540	-70,85	
1551,542	-73,43	
1551,544	-73,43	
1551,546	-70,24	
1551,548	-73,43	
1551,550	-73,43	
1551,552	-69,50	
1551,554	-73,43	
1551,556	-73,43	
1551,558	-73,43	
1551,560	-73,43	
1551,562	-71,08	
1551,564	-73,43	
1551,566	-73,43	
1551,568	-73,43	
1551,570	-72,68	
1551,572	-73,43	
1551,574	-73,43	
1551,576	-73,43	
1551,578	-73,43	
1551,580	-73,43	
1551,582	-69,35	
1551,584	-70,36	
1551,586	-73,43	
1551,588	-71,75	
1551,590	-71,23	
1551,592	-73,43	
1551,594	-73,43	
1551,596	-73,43	
1551,598	-68,17	
1551,600	-67,63	
1551,602	-73,43	
1551,604	-73,43	
1551,606	-67,82	
1551,608	-73,43	
1551,610	-73,43	
1551,612	-73,43	
1551,614	-68,35	
1551,616	-72,49	
1551,618	-73,43	
1551,620	-71,99	
1551,622	-72,86	
1551,624	-73,43	
1551,626	-73,43	
1551,628	-73,43	
1551,630	-73,43	
1551,632	-73,43	
1551,634	-73,43	
1551,636	-73,43	
1551,638	-73,43	
1551,640	-73,43	
1551,642	-73,43	
1551,644	-70,64	
1551,646	-70,91	
1551,648	-73,43	
1551,650	-73,43	
1551,652	-73,43	
1551,654	-73,43	
1551,656	-73,43	
1551,658	-73,43	
1551,660	-73,43	
1551,662	-70,89	
1551,664	-73,43	
1551,666	-73,43	
1551,668	-73,43	
1551,670	-73,43	
1551,672	-73,43	
1551,674	-72,44	
1551,676	-69,34	
1551,678	-67,93	
1551,680	-73,01	
1551,682	-73,43	
1551,684	-73,43	
1551,686	-73,43	
1551,688	-72,35	
1551,690	-71,12	
1551,692	-69,16	
1551,694	-73,43	
1551,696	-71,11	
1551,698	-72,28	
1551,700	-73,43	
1551,702	-73,43	
1551,704	-73,43	
1551,706	-73,43	
1551,708	-71,18	
1551,710	-72,61	
1551,712	-73,43	
1551,714	-73,43	
1551,716	-73,43	
1551,718	-73,43	
1551,720	-73,43	
1551,722	-70,28	
1551,724	-73,43	
1551,726	-68,82	
1551,728	-69,51	
1551,730	-73,43	
1551,732	-73,43	
1551,734	-73,43	
1551,736	-73,43	
1551,738	-70,99	
1551,740	-69,49	
1551,742	-73,43	
1551,744	-70,68	
1551,746	-69,37	
1551,748	-73,43	
1551,750	-73,38	
1551,752	-73,43	
1551,754	-73,43	
1551,756	-73,43	
1551,758	-73,43	
1551,760	-71,46	
1551,762	-71,78	
1551,764	-73,43	
1551,766	-72,40	
1551,768	-71,63	
1551,770	-73,43	
1551,772	-68,03	
1551,774	-71,35	
1551,776	-73,43	
1551,778	-68,03	
1551,780	-73,43	
1551,782	-73,43	
1551,784	-73,43	
1551,786	-73,43	
1551,788	-73,43	
1551,790	-69,88	
1551,792	-68,52	
1551,794	-73,43	
1551,796	-73,43	
1551,798	-73,43	
1551,800	-73,43	
1551,802	-73,43	
1551,804	-73,43	
1551,806	-73,43	
1551,808	-70,07	
1551,810	-70,33	
1551,812	-73,43	
1551,814	-73,43	
1551,816	-73,43	
1551,818	-73,43	
1551,820	-73,43	
1551,822	-73,43	
1551,824	-73,43	
1551,826	-73,43	
1551,828	-72,38	
1551,830	-73,19	
1551,832	-73,43	
1551,834	-73,43	
1551,836	-73,43	
1551,838	-73,43	
1551,840	-73,43	
1551,842	-73,43	
1551,844	-73,43	
1551,846	-68,97	
1551,848	-70,17	
1551,850	-73,43	
1551,852	-69,26	
1551,854	-68,68	
1551,856	-73,43	
1551,858	-72,26	
1551,860	-73,43	
1551,862	-73,43	
1551,864	-73,43	
1551,866	-73,43	
1551,868	-73,43	
1551,870	-73,43	
1551,872	-73,38	
1551,874	-73,43	
1551,876	-73,43	
1551,878	-73,43	
1551,880	-73,22	
1551,882	-73,43	
1551,884	-71,82	
1551,886	-73,43	
1551,888	-73,43	
1551,890	-73,43	
1551,892	-73,43	
1551,894	-73,43	
1551,896	-71,58	
1551,898	-73,43	
1551,900	-71,15	
1551,902	-73,43	
1551,904	-73,43	
1551,906	-73,43	
1551,908	-71,36	
1551,910	-72,32	
1551,912	-69,85	
1551,914	-67,50	
1551,916	-70,64	
1551,918	-68,52	
1551,920	-73,43	
1551,922	-70,41	
1551,924	-69,98	
1551,926	-73,43	
1551,928	-73,43	
1551,930	-73,43	
1551,932	-73,43	
1551,934	-73,43	
1551,936	-73,43	
1551,938	-73,43	
1551,940	-73,43	
1551,942	-71,03	
1551,944	-71,86	
1551,946	-68,26	
1551,948	-69,59	
1551,950	-73,43	
1551,952	-73,43	
1551,954	-73,43	
1551,956	-73,43	
1551,958	-73,43	
1551,960	-73,43	
1551,962	-73,43	
1551,964	-70,96	
1551,966	-73,43	
1551,968	-73,43	
1551,970	-73,43	
1551,972	-73,29	
1551,974	-73,09	
1551,976	-72,41	
1551,978	-73,43	
1551,980	-73,43	
1551,982	-73,43	
1551,984	-73,43	
1551,986	-72,11	
1551,988	-73,43	
1551,990	-73,43	
1551,992	-69,77	
1551,994	-72,47	
1551,996	-73,43	
1551,998	-69,86	
1552,000	-70,37	
1552,002	-68,94	
1552,004	-67,43	
1552,006	-66,66	
1552,008	-67,99	
1552,010	-71,20	
1552,012	-71,17	
1552,014	-70,66	
1552,016	-73,43	
1552,018	-73,43	
1552,020	-73,43	
1552,022	-73,43	
1552,024	-73,43	
1552,026	-73,43	
1552,028	-73,43	
1552,030	-70,41	
1552,032	-73,43	
1552,034	-73,43	
1552,036	-73,43	
1552,038	-69,76	
1552,040	-68,97	
1552,042	-73,43	
1552,044	-73,43	
1552,046	-73,43	
1552,048	-73,43	
1552,050	-73,43	
1552,052	-68,62	
1552,054	-67,92	
1552,056	-70,14	
1552,058	-71,80	
1552,060	-73,43	
1552,062	-73,43	
1552,064	-73,43	
1552,066	-73,43	
1552,068	-73,43	
1552,070	-73,43	
1552,072	-73,43	
1552,074	-73,43	
1552,076	-66,93	
1552,078	-68,66	
1552,080	-72,11	
1552,082	-72,97	
1552,084	-73,43	
1552,086	-73,43	
1552,088	-73,43	
1552,090	-70,93	
1552,092	-69,08	
1552,094	-69,81	
1552,096	-66,88	
1552,098	-68,23	
1552,100	-73,01	
1552,102	-73,07	
1552,104	-73,43	
1552,106	-73,43	
1552,108	-73,43	
1552,110	-73,43	
1552,112	-73,11	
1552,114	-73,43	
1552,116	-73,43	
1552,118	-73,43	
1552,120	-71,16	
1552,122	-70,67	
1552,124	-73,43	
1552,126	-73,43	
1552,128	-73,43	
1552,130	-70,33	
1552,132	-70,83	
1552,134	-73,43	
1552,136	-69,18	
1552,138	-73,43	
1552,140	-68,70	
1552,142	-73,43	
1552,144	-73,43	
1552,146	-73,43	
1552,148	-73,43	
1552,150	-73,43	
1552,152	-73,43	
1552,154	-73,30	
1552,156	-68,17	
1552,158	-68,17	
1552,160	-69,04	
1552,162	-71,20	
1552,164	-68,34	
1552,166	-68,88	
1552,168	-73,43	
1552,170	-73,43	
1552,172	-73,43	
1552,174	-70,44	
1552,176	-73,43	
1552,178	-70,22	
1552,180	-69,85	
1552,182	-73,43	
1552,184	-73,43	
1552,186	-73,43	
1552,188	-70,84	
1552,190	-69,06	
1552,192	-73,43	
1552,194	-73,43	
1552,196	-73,43	
1552,198	-73,43	
1552,200	-72,41	
1552,202	-73,43	
1552,204	-73,43	
1552,206	-73,43	
1552,208	-73,43	
1552,210	-72,99	
1552,212	-72,50	
1552,214	-73,43	
1552,216	-73,43	
1552,218	-69,83	
1552,220	-70,49	
1552,222	-73,43	
1552,224	-66,16	
1552,226	-73,43	
1552,228	-73,43	
1552,230	-73,43	
1552,232	-73,43	
1552,234	-73,43	
1552,236	-73,43	
1552,238	-73,43	
1552,240	-73,43	
1552,242	-70,85	
1552,244	-71,64	
1552,246	-73,43	
1552,248	-73,43	
1552,250	-73,43	
1552,252	-72,37	
1552,254	-73,16	
1552,256	-71,48	
1552,258	-72,43	
1552,260	-73,43	
1552,262	-73,43	
1552,264	-73,43	
1552,266	-73,43	
1552,268	-73,43	
1552,270	-69,50	
1552,272	-73,43	
1552,274	-73,43	
1552,276	-69,62	
1552,278	-68,24	
1552,280	-72,76	
1552,282	-70,06	
1552,284	-70,08	
1552,286	-73,43	
1552,288	-73,43	
1552,290	-73,43	
1552,292	-73,43	
1552,294	-73,43	
1552,296	-73,43	
1552,298	-71,59	
1552,300	-73,43	
1552,302	-73,43	
1552,304	-73,06	
1552,306	-68,35	
1552,308	-73,43	
1552,310	-73,43	
1552,312	-73,43	
1552,314	-70,71	
1552,316	-70,14	
1552,318	-73,43	
1552,320	-73,43	
1552,322	-73,43	
1552,324	-73,43	
1552,326	-71,48	
1552,328	-73,43	
1552,330	-73,43	
1552,332	-73,43	
1552,334	-73,43	
1552,336	-73,14	
1552,338	-73,43	
1552,340	-73,43	
1552,342	-73,01	
1552,344	-70,97	
1552,346	-71,13	
1552,348	-73,43	
1552,350	-73,43	
1552,352	-71,80	
1552,354	-66,04	
1552,356	-69,22	
1552,358	-69,27	
1552,360	-73,43	
1552,362	-73,43	
1552,364	-73,43	
1552,366	-73,43	
1552,368	-73,43	
1552,370	-73,43	
1552,372	-73,43	
1552,374	-73,43	
1552,376	-73,43	
1552,378	-73,43	
1552,380	-69,98	
1552,382	-66,86	
1552,384	-71,73	
1552,386	-73,43	
1552,388	-71,59	
1552,390	-73,43	
1552,392	-70,38	
1552,394	-70,37	
1552,396	-73,43	
1552,398	-73,43	
1552,400	-73,43	
1552,402	-69,11	
1552,404	-69,20	
1552,406	-69,34	
1552,408	-69,62	
1552,410	-69,50	
1552,412	-73,43	
1552,414	-73,43	
1552,416	-71,70	
1552,418	-73,43	
1552,420	-73,43	
1552,422	-73,43	
1552,424	-73,43	
1552,426	-73,43	
1552,428	-73,43	
1552,430	-73,43	
1552,432	-65,38	
1552,434	-69,34	
1552,436	-72,26	
1552,438	-69,36	
1552,440	-73,43	
1552,442	-73,43	
1552,444	-70,34	
1552,446	-72,98	
1552,448	-73,43	
1552,450	-72,74	
1552,452	-73,43	
1552,454	-73,43	
1552,456	-73,43	
1552,458	-73,43	
1552,460	-72,76	
1552,462	-69,96	
1552,464	-67,21	
1552,466	-69,30	
1552,468	-69,46	
1552,470	-69,79	
1552,472	-71,86	
1552,474	-73,24	
1552,476	-73,43	
1552,478	-73,43	
1552,480	-70,23	
1552,482	-73,43	
1552,484	-71,29	
1552,486	-72,49	
1552,488	-70,68	
1552,490	-70,59	
1552,492	-73,43	
1552,494	-73,43	
1552,496	-71,49	
1552,498	-73,43	
1552,500	-72,75	
1552,502	-70,30	
1552,504	-70,93	
1552,506	-73,43	
1552,508	-73,43	
1552,510	-73,43	
1552,512	-73,43	
1552,514	-70,81	
1552,516	-68,98	
1552,518	-68,76	
1552,520	-71,01	
1552,522	-70,12	
1552,524	-68,95	
1552,526	-72,84	
1552,528	-73,43	
1552,530	-73,43	
1552,532	-70,91	
1552,534	-69,37	
1552,536	-68,99	
1552,538	-70,84	
1552,540	-73,43	
1552,542	-73,43	
1552,544	-73,43	
1552,546	-73,43	
1552,548	-72,16	
1552,550	-73,43	
1552,552	-70,86	
1552,554	-73,43	
1552,556	-73,43	
1552,558	-72,64	
1552,560	-73,43	
1552,562	-73,43	
1552,564	-71,08	
1552,566	-70,92	
1552,568	-73,43	
1552,570	-73,43	
1552,572	-69,68	
1552,574	-71,00	
1552,576	-73,43	
1552,578	-67,70	
1552,580	-73,43	
1552,582	-70,82	
1552,584	-66,48	
1552,586	-71,40	
1552,588	-69,07	
1552,590	-71,61	
1552,592	-72,25	
1552,594	-71,76	
1552,596	-73,43	
1552,598	-73,43	
1552,600	-73,43	
1552,602	-70,48	
1552,604	-73,43	
1552,606	-73,43	
1552,608	-69,20	
1552,610	-71,67	
1552,612	-68,72	
1552,614	-73,43	
1552,616	-69,98	
1552,618	-73,43	
1552,620	-73,43	
1552,622	-70,93	
1552,624	-72,06	
1552,626	-73,43	
1552,628	-69,17	
1552,630	-71,54	
1552,632	-72,94	
1552,634	-71,53	
1552,636	-73,43	
1552,638	-73,43	
1552,640	-73,43	
1552,642	-73,16	
1552,644	-73,43	
1552,646	-66,42	
1552,648	-66,58	
1552,650	-73,43	
1552,652	-69,23	
1552,654	-68,77	
1552,656	-70,76	
1552,658	-71,19	
1552,660	-70,48	
1552,662	-73,20	
1552,664	-73,43	
1552,666	-71,31	
1552,668	-72,80	
1552,670	-73,43	
1552,672	-73,43	
1552,674	-69,84	
1552,676	-70,36	
1552,678	-72,74	
1552,680	-73,43	
1552,682	-68,68	
1552,684	-68,94	
1552,686	-72,96	
1552,688	-73,43	
1552,690	-73,43	
1552,692	-69,99	
1552,694	-73,00	
1552,696	-73,43	
1552,698	-68,62	
1552,700	-73,43	
1552,702	-71,57	
1552,704	-69,77	
1552,706	-68,61	
1552,708	-68,82	
1552,710	-73,43	
1552,712	-73,43	
1552,714	-73,09	
1552,716	-73,43	
1552,718	-73,43	
1552,720	-73,43	
1552,722	-73,43	
1552,724	-73,43	
1552,726	-72,02	
1552,728	-73,43	
1552,730	-68,11	
1552,732	-71,54	
1552,734	-71,30	
1552,736	-73,43	
1552,738	-73,43	
1552,740	-73,43	
1552,742	-71,51	
1552,744	-73,43	
1552,746	-73,43	
1552,748	-68,77	
1552,750	-73,43	
1552,752	-73,43	
1552,754	-73,43	
1552,756	-73,43	
1552,758	-73,43	
1552,760	-73,43	
1552,762	-73,43	
1552,764	-73,43	
1552,766	-73,43	
1552,768	-72,16	
1552,770	-73,43	
1552,772	-73,43	
1552,774	-73,43	
1552,776	-73,43	
1552,778	-73,43	
1552,780	-73,32	
1552,782	-73,43	
1552,784	-73,01	
1552,786	-73,43	
1552,788	-73,43	
1552,790	-73,43	
1552,792	-73,43	
1552,794	-73,43	
1552,796	-73,43	
1552,798	-66,01	
1552,800	-69,36	
1552,802	-67,83	
1552,804	-69,48	
1552,806	-73,43	
1552,808	-73,06	
1552,810	-69,19	
1552,812	-68,08	
1552,814	-68,91	
1552,816	-69,53	
1552,818	-66,86	
1552,820	-72,81	
1552,822	-73,43	
1552,824	-73,43	
1552,826	-73,43	
1552,828	-73,43	
1552,830	-70,31	
1552,832	-69,30	
1552,834	-70,23	
1552,836	-72,65	
1552,838	-73,43	
1552,840	-73,43	
1552,842	-68,47	
1552,844	-70,59	
1552,846	-73,43	
1552,848	-73,43	
1552,850	-68,94	
1552,852	-73,43	
1552,854	-73,43	
1552,856	-73,43	
1552,858	-71,35	
1552,860	-73,43	
1552,862	-73,43	
1552,864	-72,15	
1552,866	-73,43	
1552,868	-73,43	
1552,870	-73,43	
1552,872	-73,43	
1552,874	-73,43	
1552,876	-73,43	
1552,878	-73,43	
1552,880	-71,35	
1552,882	-73,43	
1552,884	-73,43	
1552,886	-72,02	
1552,888	-70,55	
1552,890	-71,14	
1552,892	-71,79	
1552,894	-72,21	
1552,896	-73,12	
1552,898	-72,41	
1552,900	-69,88	
1552,902	-70,85	
1552,904	-72,16	
1552,906	-68,05	
1552,908	-70,83	
1552,910	-71,93	
1552,912	-73,43	
1552,914	-73,43	
1552,916	-70,95	
1552,918	-69,65	
1552,920	-73,13	
1552,922	-73,43	
1552,924	-73,43	
1552,926	-73,43	
1552,928	-73,43	
1552,930	-70,85	
1552,932	-71,54	
1552,934	-69,08	
1552,936	-70,47	
1552,938	-73,43	
1552,940	-71,22	
1552,942	-73,43	
1552,944	-73,43	
1552,946	-73,43	
1552,948	-72,61	
1552,950	-73,43	
1552,952	-72,54	
1552,954	-69,18	
1552,956	-68,65	
1552,958	-73,43	
1552,960	-73,43	
1552,962	-72,74	
1552,964	-72,53	
1552,966	-69,00	
1552,968	-68,82	
1552,970	-73,43	
1552,972	-73,43	
1552,974	-73,43	
1552,976	-73,43	
1552,978	-67,52	
1552,980	-69,73	
1552,982	-72,28	
1552,984	-73,43	
1552,986	-73,43	
1552,988	-73,43	
1552,990	-73,43	
1552,992	-72,71	
1552,994	-68,97	
1552,996	-71,11	
1552,998	-73,43	
1553,000	-73,43	


