OSA WDM Report

Results

Trace Identification

File name:  	
Job ID:  	
Cable ID:  	
Fiber ID:  	
Customer:  	
Company:  	
Operator:  	
Maintenance reason:  	
Link ID:  	530
Orientation:  	None
System:  	
Network element:  	None
Test point:  	None
Description:  	
Comments:  	

Acquisition Conditions

Acquisition type:  	Real Time
Number of scans:  	1
Spectral range start:  	1547,000 nm
Spectral range stop:  	1553,000 nm
User calibration:  	Factory
Calibration date:  	2017-12-22
Acquisition start time:  	2025-10-01 15:19:16
Acquisition stop time:  	2025-10-01 15:19:19
Hardware model:  	FTBx-5245-EA
Serial number:  	1085217
RBW value:  	0,041 nm

Global Results

Average signal power:  	-25,50 dBm
Signal power flatness:  	---
Average OSNR:  	36,60 dB
OSNR flatness:  	---
Total power in scan range:  	-25,48 dBm
Channel count:  	1
Empty channel count:  	0

Global Test Result

Status:  	Not Active

Channel Results

Ch.#	Name	λ (nm)	Δλ (nm)	λ Peak (nm)	∆λ Peak (nm)	Signal Power (dBm)	OSNR (dB)	NoisedBm	Bandwidth 3,00 dB (nm)	Bandwidth 20,00 dB (nm)	ENBW (nm)	Transmitter Trace	Warning	
1	C_001	1549,071	0,001	1549,066	-0,004	(i) -25,50	36,60	(IEC) -62,10	0,035	0,107	0,041	---	---	


Analysis Parameters

Default Channel Analysis

Activate default channel:  	ON
Snap to ITU grid:  	OFF
Channel width:  	20,000 nm
Signal power calculation:  	Integrated signal power
Noise for OSNR:  	Fixed range IEC based
OSNR distance:  	10,000 nm
Noise region:  	0,080 nm

Default Channel Thresholds

Signal power min.:  	-45,00 dBm
Signal power max.:  	15,00 dBm
Noise min.:  	-99,99 dBm
Noise max.:  	-40,00 dBm
OSNR min.:  	5,00 dB
OSNR max.:  	60,00 dB
Wavelength max. dev. ±:  	0,020 nm

Global Analysis

Peak detection level:  	-29,00 dBm
RBW for OSNR:  	0,400 nm
Wavelength offset:  	0,000 nm
Power offset:  	0,00 dB
Bandwidth at:  	20,00 dB

Global Thresholds

Average signal power min.:  	-45,00 dBm
Average signal power max.:  	15,00 dBm
Signal power flatness max.:  	1,00 dB
Average OSNR min.:  	5,00 dB
Average OSNR max.:  	60,00 dB
OSNR flatness max.:  	10,00 dB

Channel List

Name	λ (nm)	Channel Width	Signal Power	Noise for OSNR	Transmitter Trace	OSNR Distance	Noise Region	Signal Power Min. (dBm)	Signal Power Max. (dBm)	Noise Min. (dBm)	Noise Max. (dBm)	OSNR Min. (dB)	OSNR Max. (dB)	Wavelength Max. Dev. (nm)	
C_001	1549,070	20,000 nm	Integrated signal power	Fixed range IEC based	---	10,000 nm	0,080 nm	-45,00	15,00	-99,99	-40,00	5,00	60,00	0,020	

Graph

λ (nm)	Power (dBm)	
1547,000	-72,56	
1547,002	-72,56	
1547,004	-70,90	
1547,006	-71,70	
1547,008	-71,27	
1547,010	-70,18	
1547,012	-71,28	
1547,014	-71,97	
1547,016	-69,37	
1547,018	-68,71	
1547,020	-72,56	
1547,022	-70,84	
1547,024	-72,56	
1547,026	-72,56	
1547,028	-72,56	
1547,030	-72,56	
1547,032	-71,05	
1547,034	-72,56	
1547,036	-72,56	
1547,038	-72,56	
1547,040	-72,56	
1547,042	-70,82	
1547,044	-71,22	
1547,046	-72,56	
1547,048	-68,95	
1547,050	-72,49	
1547,052	-72,56	
1547,054	-72,56	
1547,056	-72,33	
1547,058	-69,73	
1547,060	-72,56	
1547,062	-72,56	
1547,064	-72,56	
1547,066	-72,56	
1547,068	-72,56	
1547,070	-72,56	
1547,072	-71,23	
1547,074	-71,23	
1547,076	-72,56	
1547,078	-72,56	
1547,080	-72,56	
1547,082	-71,96	
1547,084	-68,89	
1547,086	-69,98	
1547,088	-70,04	
1547,090	-71,85	
1547,092	-71,79	
1547,094	-72,56	
1547,096	-72,56	
1547,098	-72,56	
1547,100	-72,56	
1547,102	-72,56	
1547,104	-72,56	
1547,106	-72,56	
1547,108	-72,56	
1547,110	-72,56	
1547,112	-68,97	
1547,114	-72,56	
1547,116	-71,99	
1547,118	-68,48	
1547,120	-70,00	
1547,122	-71,95	
1547,124	-72,56	
1547,126	-72,56	
1547,128	-72,56	
1547,130	-68,88	
1547,132	-69,39	
1547,134	-72,56	
1547,136	-72,56	
1547,138	-72,56	
1547,140	-72,56	
1547,142	-72,56	
1547,144	-69,31	
1547,146	-67,27	
1547,148	-69,54	
1547,150	-72,56	
1547,152	-72,56	
1547,154	-72,56	
1547,156	-72,56	
1547,158	-72,56	
1547,160	-70,42	
1547,162	-71,11	
1547,164	-72,56	
1547,166	-69,79	
1547,168	-72,56	
1547,170	-72,56	
1547,172	-72,56	
1547,174	-72,56	
1547,176	-72,56	
1547,178	-68,28	
1547,180	-69,69	
1547,182	-72,56	
1547,184	-72,56	
1547,186	-72,56	
1547,188	-72,56	
1547,190	-72,56	
1547,192	-72,56	
1547,194	-72,26	
1547,196	-70,76	
1547,198	-72,56	
1547,200	-72,56	
1547,202	-71,34	
1547,204	-72,56	
1547,206	-72,56	
1547,208	-72,56	
1547,210	-72,56	
1547,212	-72,56	
1547,214	-72,56	
1547,216	-72,56	
1547,218	-72,56	
1547,220	-72,56	
1547,222	-71,87	
1547,224	-71,86	
1547,226	-72,56	
1547,228	-70,24	
1547,230	-72,56	
1547,232	-72,56	
1547,234	-72,56	
1547,236	-72,56	
1547,238	-70,57	
1547,240	-72,56	
1547,242	-72,56	
1547,244	-72,03	
1547,246	-72,56	
1547,248	-70,83	
1547,250	-71,39	
1547,252	-70,71	
1547,254	-72,31	
1547,256	-72,06	
1547,258	-72,56	
1547,260	-72,56	
1547,262	-72,56	
1547,264	-72,56	
1547,266	-72,56	
1547,268	-72,56	
1547,270	-72,56	
1547,272	-70,98	
1547,274	-72,56	
1547,276	-72,56	
1547,278	-72,56	
1547,280	-72,56	
1547,282	-72,56	
1547,284	-72,56	
1547,286	-72,56	
1547,288	-72,56	
1547,290	-71,71	
1547,292	-68,75	
1547,294	-72,56	
1547,296	-72,52	
1547,298	-69,35	
1547,300	-69,58	
1547,302	-68,14	
1547,304	-71,82	
1547,306	-72,56	
1547,308	-72,56	
1547,310	-72,56	
1547,312	-72,56	
1547,314	-72,56	
1547,316	-72,56	
1547,318	-72,56	
1547,320	-72,56	
1547,322	-72,56	
1547,324	-72,56	
1547,326	-71,78	
1547,328	-72,56	
1547,330	-72,56	
1547,332	-72,56	
1547,334	-72,56	
1547,336	-72,56	
1547,338	-72,03	
1547,340	-72,56	
1547,342	-70,58	
1547,344	-67,84	
1547,346	-69,50	
1547,348	-72,56	
1547,350	-69,28	
1547,352	-71,44	
1547,354	-69,19	
1547,356	-71,34	
1547,358	-72,56	
1547,360	-72,56	
1547,362	-72,56	
1547,364	-72,56	
1547,366	-69,69	
1547,368	-69,96	
1547,370	-68,41	
1547,372	-72,56	
1547,374	-72,56	
1547,376	-72,56	
1547,378	-72,56	
1547,380	-72,56	
1547,382	-72,56	
1547,384	-72,56	
1547,386	-72,56	
1547,388	-72,56	
1547,390	-72,56	
1547,392	-70,21	
1547,394	-71,69	
1547,396	-72,56	
1547,398	-70,36	
1547,400	-72,56	
1547,402	-70,80	
1547,404	-72,56	
1547,406	-72,56	
1547,408	-72,56	
1547,410	-72,56	
1547,412	-72,56	
1547,414	-72,56	
1547,416	-72,56	
1547,418	-72,56	
1547,420	-72,56	
1547,422	-72,56	
1547,424	-70,92	
1547,426	-72,56	
1547,428	-72,56	
1547,430	-71,23	
1547,432	-72,56	
1547,434	-72,56	
1547,436	-72,07	
1547,438	-71,97	
1547,440	-72,56	
1547,442	-72,56	
1547,444	-72,56	
1547,446	-69,38	
1547,448	-72,56	
1547,450	-71,21	
1547,452	-72,56	
1547,454	-72,56	
1547,456	-72,56	
1547,458	-72,56	
1547,460	-72,56	
1547,462	-72,56	
1547,464	-72,56	
1547,466	-68,87	
1547,468	-69,70	
1547,470	-72,56	
1547,472	-72,28	
1547,474	-67,31	
1547,476	-68,43	
1547,478	-70,61	
1547,480	-68,93	
1547,482	-72,56	
1547,484	-71,58	
1547,486	-72,56	
1547,488	-72,56	
1547,490	-72,35	
1547,492	-72,56	
1547,494	-72,56	
1547,496	-72,56	
1547,498	-71,54	
1547,500	-72,56	
1547,502	-72,56	
1547,504	-72,56	
1547,506	-72,56	
1547,508	-72,56	
1547,510	-72,56	
1547,512	-72,16	
1547,514	-72,56	
1547,516	-72,56	
1547,518	-72,56	
1547,520	-69,64	
1547,522	-69,15	
1547,524	-68,36	
1547,526	-72,56	
1547,528	-72,56	
1547,530	-72,56	
1547,532	-72,03	
1547,534	-72,56	
1547,536	-72,56	
1547,538	-69,58	
1547,540	-67,65	
1547,542	-69,42	
1547,544	-70,30	
1547,546	-72,56	
1547,548	-72,56	
1547,550	-72,56	
1547,552	-72,56	
1547,554	-72,56	
1547,556	-72,56	
1547,558	-69,74	
1547,560	-72,56	
1547,562	-72,56	
1547,564	-71,51	
1547,566	-66,92	
1547,568	-68,86	
1547,570	-72,56	
1547,572	-72,56	
1547,574	-72,56	
1547,576	-72,56	
1547,578	-72,56	
1547,580	-72,56	
1547,582	-72,56	
1547,584	-72,56	
1547,586	-72,56	
1547,588	-71,87	
1547,590	-72,56	
1547,592	-72,56	
1547,594	-72,56	
1547,596	-72,56	
1547,598	-70,34	
1547,600	-72,56	
1547,602	-72,56	
1547,604	-67,56	
1547,606	-70,03	
1547,608	-71,64	
1547,610	-72,56	
1547,612	-72,56	
1547,614	-72,56	
1547,616	-72,56	
1547,618	-72,56	
1547,620	-72,56	
1547,622	-70,32	
1547,624	-72,56	
1547,626	-72,56	
1547,628	-72,56	
1547,630	-72,56	
1547,632	-72,56	
1547,634	-72,56	
1547,636	-72,56	
1547,638	-71,75	
1547,640	-69,75	
1547,642	-72,56	
1547,644	-71,42	
1547,646	-72,56	
1547,648	-72,56	
1547,650	-72,56	
1547,652	-72,56	
1547,654	-72,56	
1547,656	-71,30	
1547,658	-71,39	
1547,660	-72,56	
1547,662	-72,56	
1547,664	-72,56	
1547,666	-70,81	
1547,668	-70,18	
1547,670	-68,52	
1547,672	-72,56	
1547,674	-72,56	
1547,676	-72,56	
1547,678	-72,56	
1547,680	-72,56	
1547,682	-72,56	
1547,684	-72,56	
1547,686	-72,56	
1547,688	-72,56	
1547,690	-72,56	
1547,692	-72,56	
1547,694	-72,56	
1547,696	-72,56	
1547,698	-71,74	
1547,700	-72,56	
1547,702	-72,56	
1547,704	-72,56	
1547,706	-72,56	
1547,708	-72,56	
1547,710	-72,56	
1547,712	-68,66	
1547,714	-72,56	
1547,716	-72,56	
1547,718	-70,68	
1547,720	-72,56	
1547,722	-72,56	
1547,724	-72,56	
1547,726	-70,17	
1547,728	-68,12	
1547,730	-71,21	
1547,732	-70,72	
1547,734	-72,56	
1547,736	-72,56	
1547,738	-72,56	
1547,740	-72,56	
1547,742	-72,56	
1547,744	-72,56	
1547,746	-70,67	
1547,748	-72,56	
1547,750	-72,56	
1547,752	-72,56	
1547,754	-72,56	
1547,756	-72,56	
1547,758	-72,56	
1547,760	-72,13	
1547,762	-70,65	
1547,764	-70,50	
1547,766	-72,56	
1547,768	-72,56	
1547,770	-72,56	
1547,772	-72,56	
1547,774	-71,89	
1547,776	-70,52	
1547,778	-70,05	
1547,780	-72,56	
1547,782	-72,56	
1547,784	-72,56	
1547,786	-72,56	
1547,788	-72,56	
1547,790	-72,56	
1547,792	-72,56	
1547,794	-70,07	
1547,796	-72,56	
1547,798	-72,56	
1547,800	-71,51	
1547,802	-72,56	
1547,804	-72,56	
1547,806	-72,56	
1547,808	-72,56	
1547,810	-72,56	
1547,812	-72,56	
1547,814	-72,56	
1547,816	-72,21	
1547,818	-72,56	
1547,820	-72,56	
1547,822	-72,56	
1547,824	-72,56	
1547,826	-72,56	
1547,828	-72,56	
1547,830	-72,56	
1547,832	-72,56	
1547,834	-70,66	
1547,836	-70,89	
1547,838	-67,00	
1547,840	-72,56	
1547,842	-72,56	
1547,844	-72,56	
1547,846	-72,56	
1547,848	-72,56	
1547,850	-71,39	
1547,852	-72,56	
1547,854	-72,56	
1547,856	-72,56	
1547,858	-72,56	
1547,860	-72,56	
1547,862	-72,56	
1547,864	-72,56	
1547,866	-70,02	
1547,868	-72,56	
1547,870	-69,99	
1547,872	-72,56	
1547,874	-72,56	
1547,876	-72,56	
1547,878	-72,56	
1547,880	-72,56	
1547,882	-71,78	
1547,884	-71,14	
1547,886	-72,56	
1547,888	-72,56	
1547,890	-72,56	
1547,892	-72,56	
1547,894	-72,56	
1547,896	-72,56	
1547,898	-71,34	
1547,900	-72,56	
1547,902	-72,54	
1547,904	-72,35	
1547,906	-72,56	
1547,908	-72,56	
1547,910	-72,56	
1547,912	-72,56	
1547,914	-72,56	
1547,916	-72,56	
1547,918	-72,56	
1547,920	-72,56	
1547,922	-71,49	
1547,924	-72,56	
1547,926	-72,56	
1547,928	-72,56	
1547,930	-72,56	
1547,932	-70,80	
1547,934	-72,56	
1547,936	-70,28	
1547,938	-72,56	
1547,940	-72,56	
1547,942	-72,56	
1547,944	-72,33	
1547,946	-72,56	
1547,948	-72,56	
1547,950	-72,56	
1547,952	-72,56	
1547,954	-72,56	
1547,956	-72,56	
1547,958	-72,56	
1547,960	-72,56	
1547,962	-72,56	
1547,964	-72,56	
1547,966	-72,56	
1547,968	-72,56	
1547,970	-72,56	
1547,972	-72,56	
1547,974	-71,90	
1547,976	-71,25	
1547,978	-71,63	
1547,980	-66,40	
1547,982	-72,56	
1547,984	-71,38	
1547,986	-72,56	
1547,988	-68,90	
1547,990	-70,75	
1547,992	-72,56	
1547,994	-72,56	
1547,996	-72,56	
1547,998	-72,56	
1548,000	-72,56	
1548,002	-72,56	
1548,004	-72,56	
1548,006	-72,56	
1548,008	-72,56	
1548,010	-68,86	
1548,012	-72,56	
1548,014	-72,56	
1548,016	-72,56	
1548,018	-72,56	
1548,020	-72,56	
1548,022	-72,56	
1548,024	-72,56	
1548,026	-72,14	
1548,028	-68,31	
1548,030	-70,75	
1548,032	-72,56	
1548,034	-72,56	
1548,036	-72,25	
1548,038	-72,56	
1548,040	-72,56	
1548,042	-72,56	
1548,044	-72,56	
1548,046	-72,56	
1548,048	-72,56	
1548,050	-72,56	
1548,052	-72,56	
1548,054	-72,56	
1548,056	-72,56	
1548,058	-72,56	
1548,060	-72,56	
1548,062	-72,56	
1548,064	-72,56	
1548,066	-68,56	
1548,068	-72,56	
1548,070	-69,47	
1548,072	-72,56	
1548,074	-72,56	
1548,076	-72,56	
1548,078	-72,56	
1548,080	-72,56	
1548,082	-72,56	
1548,084	-72,56	
1548,086	-71,10	
1548,088	-70,44	
1548,090	-72,56	
1548,092	-68,14	
1548,094	-72,56	
1548,096	-72,56	
1548,098	-72,56	
1548,100	-72,56	
1548,102	-70,67	
1548,104	-72,56	
1548,106	-72,56	
1548,108	-70,86	
1548,110	-72,56	
1548,112	-72,56	
1548,114	-72,56	
1548,116	-72,47	
1548,118	-70,44	
1548,120	-71,91	
1548,122	-72,56	
1548,124	-72,56	
1548,126	-70,25	
1548,128	-72,56	
1548,130	-72,56	
1548,132	-72,56	
1548,134	-72,56	
1548,136	-70,67	
1548,138	-71,98	
1548,140	-72,56	
1548,142	-72,56	
1548,144	-72,56	
1548,146	-72,56	
1548,148	-72,56	
1548,150	-72,56	
1548,152	-72,30	
1548,154	-72,56	
1548,156	-72,56	
1548,158	-72,56	
1548,160	-72,56	
1548,162	-72,56	
1548,164	-72,56	
1548,166	-72,56	
1548,168	-72,56	
1548,170	-72,56	
1548,172	-72,56	
1548,174	-71,65	
1548,176	-72,32	
1548,178	-68,85	
1548,180	-71,40	
1548,182	-72,56	
1548,184	-72,47	
1548,186	-72,56	
1548,188	-72,56	
1548,190	-72,56	
1548,192	-72,56	
1548,194	-72,56	
1548,196	-72,56	
1548,198	-72,56	
1548,200	-72,56	
1548,202	-72,56	
1548,204	-69,28	
1548,206	-72,06	
1548,208	-67,56	
1548,210	-72,56	
1548,212	-72,56	
1548,214	-72,56	
1548,216	-72,56	
1548,218	-72,56	
1548,220	-72,56	
1548,222	-72,56	
1548,224	-72,56	
1548,226	-72,56	
1548,228	-72,56	
1548,230	-72,56	
1548,232	-72,56	
1548,234	-72,56	
1548,236	-70,19	
1548,238	-72,56	
1548,240	-72,56	
1548,242	-70,46	
1548,244	-72,56	
1548,246	-72,56	
1548,248	-71,10	
1548,250	-72,56	
1548,252	-72,56	
1548,254	-72,56	
1548,256	-72,03	
1548,258	-72,56	
1548,260	-66,71	
1548,262	-72,56	
1548,264	-72,56	
1548,266	-71,76	
1548,268	-70,41	
1548,270	-72,56	
1548,272	-72,56	
1548,274	-70,07	
1548,276	-70,42	
1548,278	-72,41	
1548,280	-71,07	
1548,282	-72,41	
1548,284	-72,56	
1548,286	-72,56	
1548,288	-72,56	
1548,290	-72,56	
1548,292	-72,56	
1548,294	-72,56	
1548,296	-72,56	
1548,298	-72,56	
1548,300	-71,45	
1548,302	-71,46	
1548,304	-71,36	
1548,306	-70,25	
1548,308	-72,56	
1548,310	-72,56	
1548,312	-71,29	
1548,314	-72,56	
1548,316	-72,56	
1548,318	-72,56	
1548,320	-72,56	
1548,322	-72,56	
1548,324	-71,31	
1548,326	-70,62	
1548,328	-72,56	
1548,330	-72,56	
1548,332	-72,56	
1548,334	-68,52	
1548,336	-72,56	
1548,338	-72,56	
1548,340	-72,56	
1548,342	-72,56	
1548,344	-72,56	
1548,346	-72,56	
1548,348	-72,56	
1548,350	-72,56	
1548,352	-72,56	
1548,354	-72,56	
1548,356	-69,09	
1548,358	-68,04	
1548,360	-72,56	
1548,362	-72,56	
1548,364	-72,56	
1548,366	-72,56	
1548,368	-72,56	
1548,370	-72,56	
1548,372	-72,56	
1548,374	-72,56	
1548,376	-67,26	
1548,378	-70,70	
1548,380	-70,22	
1548,382	-70,27	
1548,384	-72,11	
1548,386	-72,56	
1548,388	-72,56	
1548,390	-72,56	
1548,392	-72,56	
1548,394	-72,56	
1548,396	-72,56	
1548,398	-72,56	
1548,400	-72,56	
1548,402	-72,56	
1548,404	-72,56	
1548,406	-68,80	
1548,408	-71,60	
1548,410	-72,56	
1548,412	-70,07	
1548,414	-72,56	
1548,416	-72,56	
1548,418	-72,56	
1548,420	-71,19	
1548,422	-69,08	
1548,424	-71,72	
1548,426	-72,56	
1548,428	-72,56	
1548,430	-72,56	
1548,432	-72,56	
1548,434	-72,56	
1548,436	-72,56	
1548,438	-72,56	
1548,440	-69,80	
1548,442	-72,56	
1548,444	-72,56	
1548,446	-72,56	
1548,448	-72,56	
1548,450	-69,68	
1548,452	-68,94	
1548,454	-72,56	
1548,456	-72,56	
1548,458	-72,56	
1548,460	-70,55	
1548,462	-72,56	
1548,464	-72,56	
1548,466	-72,56	
1548,468	-71,01	
1548,470	-72,56	
1548,472	-72,56	
1548,474	-72,56	
1548,476	-72,56	
1548,478	-72,56	
1548,480	-72,56	
1548,482	-72,56	
1548,484	-72,56	
1548,486	-72,56	
1548,488	-69,90	
1548,490	-72,56	
1548,492	-72,56	
1548,494	-69,84	
1548,496	-72,56	
1548,498	-72,56	
1548,500	-72,56	
1548,502	-72,56	
1548,504	-70,69	
1548,506	-72,52	
1548,508	-71,93	
1548,510	-67,40	
1548,512	-66,00	
1548,514	-66,20	
1548,516	-67,46	
1548,518	-67,01	
1548,520	-72,56	
1548,522	-72,56	
1548,524	-72,56	
1548,526	-72,56	
1548,528	-72,56	
1548,530	-72,56	
1548,532	-72,56	
1548,534	-70,67	
1548,536	-72,56	
1548,538	-72,56	
1548,540	-72,56	
1548,542	-72,56	
1548,544	-72,56	
1548,546	-72,56	
1548,548	-71,89	
1548,550	-70,54	
1548,552	-70,26	
1548,554	-71,51	
1548,556	-69,72	
1548,558	-69,48	
1548,560	-72,56	
1548,562	-72,56	
1548,564	-72,56	
1548,566	-72,56	
1548,568	-70,40	
1548,570	-71,81	
1548,572	-72,56	
1548,574	-72,56	
1548,576	-72,56	
1548,578	-72,56	
1548,580	-67,84	
1548,582	-69,53	
1548,584	-69,22	
1548,586	-72,56	
1548,588	-72,56	
1548,590	-72,56	
1548,592	-72,56	
1548,594	-72,56	
1548,596	-70,41	
1548,598	-72,56	
1548,600	-72,56	
1548,602	-72,56	
1548,604	-72,56	
1548,606	-72,56	
1548,608	-72,56	
1548,610	-72,56	
1548,612	-72,56	
1548,614	-72,56	
1548,616	-72,56	
1548,618	-72,56	
1548,620	-72,56	
1548,622	-72,56	
1548,624	-72,56	
1548,626	-72,56	
1548,628	-72,56	
1548,630	-71,21	
1548,632	-69,18	
1548,634	-67,29	
1548,636	-72,02	
1548,638	-72,56	
1548,640	-72,56	
1548,642	-70,09	
1548,644	-72,56	
1548,646	-72,56	
1548,648	-68,43	
1548,650	-72,56	
1548,652	-72,56	
1548,654	-69,62	
1548,656	-72,56	
1548,658	-72,56	
1548,660	-68,47	
1548,662	-72,56	
1548,664	-72,56	
1548,666	-72,56	
1548,668	-72,56	
1548,670	-72,56	
1548,672	-72,56	
1548,674	-72,56	
1548,676	-72,56	
1548,678	-72,56	
1548,680	-72,56	
1548,682	-70,21	
1548,684	-71,15	
1548,686	-72,56	
1548,688	-72,56	
1548,690	-70,01	
1548,692	-72,56	
1548,694	-67,74	
1548,696	-72,18	
1548,698	-67,32	
1548,700	-72,56	
1548,702	-72,56	
1548,704	-72,56	
1548,706	-72,56	
1548,708	-72,56	
1548,710	-72,56	
1548,712	-72,56	
1548,714	-71,40	
1548,716	-70,21	
1548,718	-70,08	
1548,720	-70,13	
1548,722	-72,56	
1548,724	-72,56	
1548,726	-72,56	
1548,728	-72,56	
1548,730	-72,56	
1548,732	-72,56	
1548,734	-71,52	
1548,736	-71,60	
1548,738	-72,56	
1548,740	-71,45	
1548,742	-68,61	
1548,744	-72,56	
1548,746	-72,56	
1548,748	-72,56	
1548,750	-72,56	
1548,752	-72,56	
1548,754	-72,56	
1548,756	-72,56	
1548,758	-72,56	
1548,760	-72,25	
1548,762	-68,69	
1548,764	-72,56	
1548,766	-72,56	
1548,768	-72,56	
1548,770	-70,62	
1548,772	-72,56	
1548,774	-72,56	
1548,776	-72,56	
1548,778	-72,56	
1548,780	-72,56	
1548,782	-72,56	
1548,784	-72,56	
1548,786	-72,20	
1548,788	-68,00	
1548,790	-66,29	
1548,792	-67,22	
1548,794	-72,56	
1548,796	-72,56	
1548,798	-72,56	
1548,800	-72,56	
1548,802	-72,56	
1548,804	-72,56	
1548,806	-72,56	
1548,808	-72,56	
1548,810	-72,56	
1548,812	-72,56	
1548,814	-72,56	
1548,816	-71,26	
1548,818	-66,49	
1548,820	-67,17	
1548,822	-69,88	
1548,824	-70,11	
1548,826	-70,96	
1548,828	-72,56	
1548,830	-72,56	
1548,832	-72,56	
1548,834	-72,56	
1548,836	-67,77	
1548,838	-71,01	
1548,840	-72,56	
1548,842	-72,56	
1548,844	-69,01	
1548,846	-68,12	
1548,848	-72,56	
1548,850	-71,56	
1548,852	-72,56	
1548,854	-71,37	
1548,856	-72,56	
1548,858	-72,56	
1548,860	-72,56	
1548,862	-70,03	
1548,864	-66,75	
1548,866	-67,78	
1548,868	-67,97	
1548,870	-72,56	
1548,872	-72,56	
1548,874	-71,37	
1548,876	-72,56	
1548,878	-72,56	
1548,880	-72,56	
1548,882	-71,44	
1548,884	-72,56	
1548,886	-69,20	
1548,888	-72,56	
1548,890	-69,78	
1548,892	-66,23	
1548,894	-64,89	
1548,896	-64,97	
1548,898	-64,60	
1548,900	-64,19	
1548,902	-63,94	
1548,904	-63,26	
1548,906	-65,61	
1548,908	-64,68	
1548,910	-63,58	
1548,912	-64,89	
1548,914	-66,09	
1548,916	-65,99	
1548,918	-65,89	
1548,920	-65,83	
1548,922	-65,23	
1548,924	-65,68	
1548,926	-63,69	
1548,928	-66,71	
1548,930	-65,54	
1548,932	-64,39	
1548,934	-63,74	
1548,936	-63,04	
1548,938	-62,97	
1548,940	-63,48	
1548,942	-62,33	
1548,944	-61,72	
1548,946	-61,49	
1548,948	-61,51	
1548,950	-60,80	
1548,952	-60,15	
1548,954	-60,10	
1548,956	-59,82	
1548,958	-58,77	
1548,960	-57,98	
1548,962	-57,85	
1548,964	-57,61	
1548,966	-56,83	
1548,968	-56,29	
1548,970	-55,55	
1548,972	-55,17	
1548,974	-54,81	
1548,976	-54,29	
1548,978	-53,78	
1548,980	-53,36	
1548,982	-53,07	
1548,984	-52,68	
1548,986	-52,20	
1548,988	-51,80	
1548,990	-51,55	
1548,992	-51,21	
1548,994	-51,00	
1548,996	-50,79	
1548,998	-50,51	
1549,000	-50,22	
1549,002	-49,89	
1549,004	-49,39	
1549,006	-48,78	
1549,008	-47,98	
1549,010	-47,18	
1549,012	-46,09	
1549,014	-45,12	
1549,016	-43,66	
1549,018	-42,49	
1549,020	-41,59	
1549,022	-40,65	
1549,024	-39,56	
1549,026	-38,54	
1549,028	-37,62	
1549,030	-36,62	
1549,032	-35,58	
1549,034	-34,73	
1549,036	-33,69	
1549,038	-33,06	
1549,040	-32,12	
1549,042	-30,79	
1549,044	-29,94	
1549,046	-29,21	
1549,048	-28,53	
1549,050	-27,93	
1549,052	-27,30	
1549,054	-26,75	
1549,056	-26,33	
1549,058	-25,97	
1549,060	-25,66	
1549,062	-25,46	
1549,064	-25,36	
1549,066	-25,31	
1549,068	-25,35	
1549,070	-25,47	
1549,072	-25,65	
1549,074	-25,92	
1549,076	-26,34	
1549,078	-26,82	
1549,080	-27,26	
1549,082	-27,71	
1549,084	-28,29	
1549,086	-29,06	
1549,088	-29,82	
1549,090	-30,44	
1549,092	-31,10	
1549,094	-31,91	
1549,096	-32,82	
1549,098	-33,59	
1549,100	-34,58	
1549,102	-35,30	
1549,104	-36,62	
1549,106	-37,44	
1549,108	-38,46	
1549,110	-39,46	
1549,112	-40,48	
1549,114	-41,64	
1549,116	-42,65	
1549,118	-43,77	
1549,120	-44,92	
1549,122	-45,70	
1549,124	-46,39	
1549,126	-46,95	
1549,128	-47,54	
1549,130	-48,07	
1549,132	-48,29	
1549,134	-48,65	
1549,136	-48,82	
1549,138	-49,10	
1549,140	-49,34	
1549,142	-49,58	
1549,144	-49,89	
1549,146	-50,25	
1549,148	-50,65	
1549,150	-51,04	
1549,152	-51,41	
1549,154	-51,83	
1549,156	-52,21	
1549,158	-52,58	
1549,160	-52,97	
1549,162	-53,31	
1549,164	-53,84	
1549,166	-54,29	
1549,168	-54,99	
1549,170	-55,37	
1549,172	-55,73	
1549,174	-56,12	
1549,176	-56,47	
1549,178	-56,86	
1549,180	-57,24	
1549,182	-57,84	
1549,184	-58,80	
1549,186	-58,93	
1549,188	-59,10	
1549,190	-60,00	
1549,192	-60,25	
1549,194	-59,94	
1549,196	-60,15	
1549,198	-60,47	
1549,200	-60,01	
1549,202	-61,03	
1549,204	-61,55	
1549,206	-60,72	
1549,208	-61,09	
1549,210	-61,93	
1549,212	-62,05	
1549,214	-62,96	
1549,216	-62,97	
1549,218	-61,96	
1549,220	-62,40	
1549,222	-63,37	
1549,224	-62,74	
1549,226	-61,46	
1549,228	-62,21	
1549,230	-62,88	
1549,232	-63,15	
1549,234	-63,25	
1549,236	-63,42	
1549,238	-63,76	
1549,240	-63,99	
1549,242	-63,57	
1549,244	-63,35	
1549,246	-64,03	
1549,248	-64,52	
1549,250	-64,46	
1549,252	-64,84	
1549,254	-64,80	
1549,256	-64,64	
1549,258	-63,85	
1549,260	-66,32	
1549,262	-65,32	
1549,264	-64,22	
1549,266	-68,01	
1549,268	-66,53	
1549,270	-63,67	
1549,272	-64,70	
1549,274	-64,29	
1549,276	-63,69	
1549,278	-64,86	
1549,280	-66,82	
1549,282	-67,86	
1549,284	-67,38	
1549,286	-67,86	
1549,288	-70,41	
1549,290	-68,73	
1549,292	-65,75	
1549,294	-64,60	
1549,296	-72,56	
1549,298	-67,24	
1549,300	-67,21	
1549,302	-68,93	
1549,304	-66,40	
1549,306	-64,17	
1549,308	-67,34	
1549,310	-65,51	
1549,312	-64,36	
1549,314	-66,21	
1549,316	-66,82	
1549,318	-66,89	
1549,320	-69,05	
1549,322	-66,91	
1549,324	-72,56	
1549,326	-68,04	
1549,328	-64,99	
1549,330	-66,84	
1549,332	-70,48	
1549,334	-66,30	
1549,336	-67,85	
1549,338	-68,66	
1549,340	-72,56	
1549,342	-67,03	
1549,344	-65,25	
1549,346	-69,59	
1549,348	-69,77	
1549,350	-67,28	
1549,352	-71,37	
1549,354	-66,62	
1549,356	-68,04	
1549,358	-65,25	
1549,360	-68,03	
1549,362	-67,55	
1549,364	-65,79	
1549,366	-69,57	
1549,368	-72,56	
1549,370	-72,10	
1549,372	-67,04	
1549,374	-67,51	
1549,376	-67,17	
1549,378	-65,39	
1549,380	-66,40	
1549,382	-65,88	
1549,384	-68,16	
1549,386	-71,10	
1549,388	-70,65	
1549,390	-69,33	
1549,392	-67,55	
1549,394	-66,93	
1549,396	-66,52	
1549,398	-65,45	
1549,400	-66,20	
1549,402	-72,56	
1549,404	-72,56	
1549,406	-70,01	
1549,408	-69,81	
1549,410	-67,32	
1549,412	-72,56	
1549,414	-65,93	
1549,416	-71,07	
1549,418	-72,56	
1549,420	-69,02	
1549,422	-66,42	
1549,424	-65,72	
1549,426	-67,98	
1549,428	-67,39	
1549,430	-70,15	
1549,432	-72,56	
1549,434	-72,56	
1549,436	-72,56	
1549,438	-69,11	
1549,440	-66,89	
1549,442	-69,02	
1549,444	-66,33	
1549,446	-72,56	
1549,448	-67,50	
1549,450	-72,13	
1549,452	-68,34	
1549,454	-67,83	
1549,456	-69,49	
1549,458	-70,63	
1549,460	-68,10	
1549,462	-67,48	
1549,464	-68,24	
1549,466	-66,70	
1549,468	-67,15	
1549,470	-71,73	
1549,472	-71,01	
1549,474	-72,56	
1549,476	-72,56	
1549,478	-66,99	
1549,480	-69,25	
1549,482	-72,56	
1549,484	-69,86	
1549,486	-68,93	
1549,488	-71,16	
1549,490	-69,29	
1549,492	-68,41	
1549,494	-71,33	
1549,496	-71,19	
1549,498	-72,56	
1549,500	-72,01	
1549,502	-67,38	
1549,504	-69,15	
1549,506	-69,07	
1549,508	-68,28	
1549,510	-68,16	
1549,512	-72,56	
1549,514	-72,56	
1549,516	-68,51	
1549,518	-67,89	
1549,520	-71,47	
1549,522	-72,56	
1549,524	-71,78	
1549,526	-72,56	
1549,528	-72,56	
1549,530	-72,56	
1549,532	-72,56	
1549,534	-72,56	
1549,536	-69,90	
1549,538	-67,08	
1549,540	-66,66	
1549,542	-70,40	
1549,544	-72,56	
1549,546	-72,40	
1549,548	-72,56	
1549,550	-72,56	
1549,552	-72,56	
1549,554	-68,15	
1549,556	-72,56	
1549,558	-72,56	
1549,560	-70,50	
1549,562	-72,56	
1549,564	-72,56	
1549,566	-70,90	
1549,568	-67,38	
1549,570	-67,33	
1549,572	-69,54	
1549,574	-72,23	
1549,576	-71,47	
1549,578	-72,56	
1549,580	-69,23	
1549,582	-72,56	
1549,584	-72,56	
1549,586	-72,56	
1549,588	-71,84	
1549,590	-66,92	
1549,592	-66,42	
1549,594	-72,56	
1549,596	-72,56	
1549,598	-70,57	
1549,600	-72,56	
1549,602	-72,56	
1549,604	-72,56	
1549,606	-72,56	
1549,608	-72,26	
1549,610	-69,72	
1549,612	-68,33	
1549,614	-66,22	
1549,616	-67,51	
1549,618	-72,56	
1549,620	-72,56	
1549,622	-69,73	
1549,624	-72,56	
1549,626	-72,56	
1549,628	-72,56	
1549,630	-70,48	
1549,632	-71,01	
1549,634	-72,56	
1549,636	-72,56	
1549,638	-67,20	
1549,640	-70,93	
1549,642	-69,04	
1549,644	-67,44	
1549,646	-67,27	
1549,648	-70,48	
1549,650	-70,51	
1549,652	-70,47	
1549,654	-71,82	
1549,656	-72,56	
1549,658	-69,79	
1549,660	-67,76	
1549,662	-69,80	
1549,664	-65,70	
1549,666	-67,39	
1549,668	-72,56	
1549,670	-72,56	
1549,672	-72,56	
1549,674	-72,56	
1549,676	-72,56	
1549,678	-72,56	
1549,680	-72,56	
1549,682	-72,00	
1549,684	-72,56	
1549,686	-69,58	
1549,688	-70,25	
1549,690	-69,76	
1549,692	-72,56	
1549,694	-72,56	
1549,696	-69,80	
1549,698	-69,13	
1549,700	-72,56	
1549,702	-72,56	
1549,704	-72,56	
1549,706	-72,56	
1549,708	-72,56	
1549,710	-70,92	
1549,712	-71,24	
1549,714	-72,56	
1549,716	-72,44	
1549,718	-68,22	
1549,720	-72,56	
1549,722	-72,15	
1549,724	-69,08	
1549,726	-72,56	
1549,728	-72,56	
1549,730	-70,19	
1549,732	-72,56	
1549,734	-72,56	
1549,736	-72,56	
1549,738	-72,56	
1549,740	-70,32	
1549,742	-72,56	
1549,744	-71,79	
1549,746	-69,05	
1549,748	-69,43	
1549,750	-69,73	
1549,752	-72,08	
1549,754	-70,52	
1549,756	-69,90	
1549,758	-72,56	
1549,760	-69,45	
1549,762	-70,12	
1549,764	-72,56	
1549,766	-72,56	
1549,768	-70,57	
1549,770	-72,56	
1549,772	-68,55	
1549,774	-72,56	
1549,776	-72,56	
1549,778	-66,58	
1549,780	-68,54	
1549,782	-71,61	
1549,784	-72,56	
1549,786	-69,11	
1549,788	-72,56	
1549,790	-70,11	
1549,792	-71,06	
1549,794	-72,56	
1549,796	-72,56	
1549,798	-70,44	
1549,800	-67,70	
1549,802	-72,56	
1549,804	-72,56	
1549,806	-72,56	
1549,808	-72,56	
1549,810	-67,78	
1549,812	-68,04	
1549,814	-72,56	
1549,816	-72,56	
1549,818	-72,56	
1549,820	-72,56	
1549,822	-69,03	
1549,824	-69,29	
1549,826	-70,16	
1549,828	-72,56	
1549,830	-72,56	
1549,832	-72,56	
1549,834	-72,56	
1549,836	-72,56	
1549,838	-72,56	
1549,840	-66,86	
1549,842	-72,56	
1549,844	-72,56	
1549,846	-72,56	
1549,848	-72,56	
1549,850	-72,56	
1549,852	-72,56	
1549,854	-70,29	
1549,856	-70,38	
1549,858	-72,56	
1549,860	-68,72	
1549,862	-72,56	
1549,864	-72,56	
1549,866	-71,44	
1549,868	-68,73	
1549,870	-72,56	
1549,872	-71,18	
1549,874	-72,56	
1549,876	-72,56	
1549,878	-72,56	
1549,880	-72,56	
1549,882	-72,56	
1549,884	-72,56	
1549,886	-72,56	
1549,888	-72,56	
1549,890	-66,41	
1549,892	-66,29	
1549,894	-72,56	
1549,896	-72,56	
1549,898	-66,56	
1549,900	-65,75	
1549,902	-67,28	
1549,904	-72,28	
1549,906	-72,56	
1549,908	-72,56	
1549,910	-72,56	
1549,912	-72,56	
1549,914	-72,56	
1549,916	-68,88	
1549,918	-72,56	
1549,920	-68,68	
1549,922	-69,60	
1549,924	-66,83	
1549,926	-69,39	
1549,928	-68,64	
1549,930	-72,56	
1549,932	-72,56	
1549,934	-72,56	
1549,936	-72,56	
1549,938	-72,56	
1549,940	-72,56	
1549,942	-72,56	
1549,944	-72,56	
1549,946	-72,56	
1549,948	-72,56	
1549,950	-72,56	
1549,952	-72,56	
1549,954	-72,56	
1549,956	-72,56	
1549,958	-72,56	
1549,960	-70,12	
1549,962	-68,46	
1549,964	-70,59	
1549,966	-72,56	
1549,968	-72,56	
1549,970	-72,56	
1549,972	-72,56	
1549,974	-72,56	
1549,976	-72,56	
1549,978	-72,56	
1549,980	-72,56	
1549,982	-69,67	
1549,984	-68,94	
1549,986	-69,65	
1549,988	-70,97	
1549,990	-72,56	
1549,992	-72,18	
1549,994	-71,07	
1549,996	-72,56	
1549,998	-72,56	
1550,000	-72,56	
1550,002	-72,56	
1550,004	-72,56	
1550,006	-72,56	
1550,008	-72,56	
1550,010	-70,02	
1550,012	-72,56	
1550,014	-72,56	
1550,016	-72,56	
1550,018	-72,56	
1550,020	-72,56	
1550,022	-72,56	
1550,024	-72,56	
1550,026	-72,56	
1550,028	-72,56	
1550,030	-70,62	
1550,032	-70,97	
1550,034	-67,03	
1550,036	-68,12	
1550,038	-71,72	
1550,040	-72,56	
1550,042	-72,56	
1550,044	-72,56	
1550,046	-72,56	
1550,048	-72,56	
1550,050	-72,56	
1550,052	-72,56	
1550,054	-72,56	
1550,056	-72,56	
1550,058	-72,56	
1550,060	-69,87	
1550,062	-72,56	
1550,064	-69,66	
1550,066	-72,56	
1550,068	-68,66	
1550,070	-72,56	
1550,072	-67,00	
1550,074	-70,04	
1550,076	-69,77	
1550,078	-72,56	
1550,080	-72,56	
1550,082	-72,56	
1550,084	-72,56	
1550,086	-72,56	
1550,088	-72,56	
1550,090	-72,56	
1550,092	-72,56	
1550,094	-72,56	
1550,096	-69,08	
1550,098	-67,49	
1550,100	-67,03	
1550,102	-70,02	
1550,104	-72,56	
1550,106	-72,56	
1550,108	-72,56	
1550,110	-72,56	
1550,112	-72,56	
1550,114	-72,56	
1550,116	-72,56	
1550,118	-68,37	
1550,120	-66,66	
1550,122	-72,56	
1550,124	-72,56	
1550,126	-67,08	
1550,128	-71,87	
1550,130	-72,56	
1550,132	-72,56	
1550,134	-72,56	
1550,136	-72,56	
1550,138	-68,52	
1550,140	-68,49	
1550,142	-69,42	
1550,144	-68,84	
1550,146	-71,09	
1550,148	-72,56	
1550,150	-72,56	
1550,152	-72,56	
1550,154	-72,56	
1550,156	-71,41	
1550,158	-72,56	
1550,160	-68,46	
1550,162	-69,46	
1550,164	-72,56	
1550,166	-67,31	
1550,168	-68,66	
1550,170	-68,21	
1550,172	-72,56	
1550,174	-72,56	
1550,176	-72,56	
1550,178	-72,56	
1550,180	-72,56	
1550,182	-67,93	
1550,184	-67,75	
1550,186	-71,87	
1550,188	-71,71	
1550,190	-68,47	
1550,192	-72,56	
1550,194	-72,56	
1550,196	-72,56	
1550,198	-72,56	
1550,200	-72,56	
1550,202	-72,56	
1550,204	-70,73	
1550,206	-72,56	
1550,208	-70,95	
1550,210	-70,80	
1550,212	-67,99	
1550,214	-67,18	
1550,216	-69,82	
1550,218	-72,56	
1550,220	-72,56	
1550,222	-72,56	
1550,224	-72,56	
1550,226	-70,16	
1550,228	-72,56	
1550,230	-67,26	
1550,232	-72,56	
1550,234	-72,56	
1550,236	-72,53	
1550,238	-72,56	
1550,240	-71,48	
1550,242	-68,67	
1550,244	-71,87	
1550,246	-72,56	
1550,248	-72,56	
1550,250	-70,81	
1550,252	-72,56	
1550,254	-71,88	
1550,256	-72,56	
1550,258	-72,56	
1550,260	-72,56	
1550,262	-70,41	
1550,264	-71,16	
1550,266	-68,34	
1550,268	-72,56	
1550,270	-72,56	
1550,272	-72,56	
1550,274	-72,56	
1550,276	-72,56	
1550,278	-72,56	
1550,280	-72,56	
1550,282	-72,56	
1550,284	-72,56	
1550,286	-72,56	
1550,288	-72,56	
1550,290	-72,56	
1550,292	-72,56	
1550,294	-72,56	
1550,296	-72,56	
1550,298	-72,56	
1550,300	-71,82	
1550,302	-72,56	
1550,304	-72,56	
1550,306	-72,56	
1550,308	-72,56	
1550,310	-66,60	
1550,312	-66,93	
1550,314	-71,42	
1550,316	-72,56	
1550,318	-72,56	
1550,320	-72,56	
1550,322	-72,56	
1550,324	-72,56	
1550,326	-72,56	
1550,328	-72,56	
1550,330	-72,56	
1550,332	-72,56	
1550,334	-72,56	
1550,336	-67,12	
1550,338	-72,56	
1550,340	-71,88	
1550,342	-68,45	
1550,344	-71,42	
1550,346	-70,66	
1550,348	-70,43	
1550,350	-72,56	
1550,352	-72,56	
1550,354	-72,56	
1550,356	-71,28	
1550,358	-71,83	
1550,360	-72,56	
1550,362	-72,56	
1550,364	-70,58	
1550,366	-72,37	
1550,368	-72,56	
1550,370	-72,56	
1550,372	-72,36	
1550,374	-72,56	
1550,376	-72,56	
1550,378	-72,56	
1550,380	-72,56	
1550,382	-72,13	
1550,384	-72,56	
1550,386	-69,13	
1550,388	-72,56	
1550,390	-72,56	
1550,392	-72,56	
1550,394	-72,56	
1550,396	-72,56	
1550,398	-72,56	
1550,400	-71,90	
1550,402	-71,61	
1550,404	-71,20	
1550,406	-69,95	
1550,408	-71,95	
1550,410	-72,56	
1550,412	-72,56	
1550,414	-72,56	
1550,416	-69,68	
1550,418	-68,21	
1550,420	-67,84	
1550,422	-67,86	
1550,424	-70,27	
1550,426	-72,56	
1550,428	-72,56	
1550,430	-71,49	
1550,432	-71,72	
1550,434	-70,56	
1550,436	-70,96	
1550,438	-72,56	
1550,440	-71,71	
1550,442	-72,56	
1550,444	-72,56	
1550,446	-72,56	
1550,448	-72,56	
1550,450	-72,56	
1550,452	-72,56	
1550,454	-72,56	
1550,456	-71,50	
1550,458	-68,63	
1550,460	-67,55	
1550,462	-72,56	
1550,464	-72,56	
1550,466	-72,56	
1550,468	-72,56	
1550,470	-69,19	
1550,472	-72,56	
1550,474	-72,56	
1550,476	-72,56	
1550,478	-72,56	
1550,480	-72,56	
1550,482	-72,56	
1550,484	-72,56	
1550,486	-72,56	
1550,488	-70,78	
1550,490	-70,65	
1550,492	-71,85	
1550,494	-70,35	
1550,496	-72,56	
1550,498	-72,56	
1550,500	-70,94	
1550,502	-72,24	
1550,504	-72,56	
1550,506	-70,08	
1550,508	-72,10	
1550,510	-72,56	
1550,512	-70,07	
1550,514	-68,33	
1550,516	-69,03	
1550,518	-69,33	
1550,520	-72,56	
1550,522	-72,56	
1550,524	-72,56	
1550,526	-69,70	
1550,528	-72,56	
1550,530	-72,56	
1550,532	-72,56	
1550,534	-72,03	
1550,536	-72,56	
1550,538	-70,81	
1550,540	-69,10	
1550,542	-72,56	
1550,544	-72,56	
1550,546	-72,56	
1550,548	-72,56	
1550,550	-72,56	
1550,552	-72,56	
1550,554	-70,57	
1550,556	-72,56	
1550,558	-72,56	
1550,560	-72,56	
1550,562	-72,56	
1550,564	-72,56	
1550,566	-67,73	
1550,568	-66,90	
1550,570	-66,85	
1550,572	-67,88	
1550,574	-71,82	
1550,576	-72,56	
1550,578	-69,42	
1550,580	-72,56	
1550,582	-72,56	
1550,584	-72,56	
1550,586	-72,56	
1550,588	-72,56	
1550,590	-72,56	
1550,592	-72,56	
1550,594	-72,56	
1550,596	-72,56	
1550,598	-72,56	
1550,600	-72,56	
1550,602	-72,24	
1550,604	-72,56	
1550,606	-72,56	
1550,608	-72,56	
1550,610	-72,56	
1550,612	-68,82	
1550,614	-69,45	
1550,616	-72,56	
1550,618	-72,56	
1550,620	-70,18	
1550,622	-72,56	
1550,624	-71,17	
1550,626	-70,00	
1550,628	-72,56	
1550,630	-71,48	
1550,632	-71,08	
1550,634	-72,56	
1550,636	-72,56	
1550,638	-72,56	
1550,640	-70,39	
1550,642	-70,40	
1550,644	-72,56	
1550,646	-69,35	
1550,648	-72,56	
1550,650	-69,49	
1550,652	-72,56	
1550,654	-72,56	
1550,656	-72,56	
1550,658	-71,26	
1550,660	-70,68	
1550,662	-68,64	
1550,664	-72,56	
1550,666	-72,56	
1550,668	-68,20	
1550,670	-72,56	
1550,672	-72,56	
1550,674	-72,56	
1550,676	-69,71	
1550,678	-72,55	
1550,680	-72,56	
1550,682	-72,56	
1550,684	-72,56	
1550,686	-72,56	
1550,688	-72,56	
1550,690	-72,56	
1550,692	-72,56	
1550,694	-72,56	
1550,696	-72,56	
1550,698	-72,56	
1550,700	-71,04	
1550,702	-72,56	
1550,704	-69,61	
1550,706	-67,57	
1550,708	-71,80	
1550,710	-72,56	
1550,712	-72,56	
1550,714	-70,29	
1550,716	-70,15	
1550,718	-71,93	
1550,720	-72,56	
1550,722	-68,44	
1550,724	-71,27	
1550,726	-72,44	
1550,728	-70,10	
1550,730	-72,56	
1550,732	-72,56	
1550,734	-71,97	
1550,736	-68,10	
1550,738	-69,28	
1550,740	-72,56	
1550,742	-72,56	
1550,744	-72,56	
1550,746	-72,56	
1550,748	-72,56	
1550,750	-70,11	
1550,752	-66,16	
1550,754	-70,38	
1550,756	-68,25	
1550,758	-69,62	
1550,760	-69,14	
1550,762	-72,54	
1550,764	-72,56	
1550,766	-72,56	
1550,768	-72,56	
1550,770	-72,56	
1550,772	-71,23	
1550,774	-72,56	
1550,776	-71,41	
1550,778	-70,41	
1550,780	-69,29	
1550,782	-70,36	
1550,784	-72,56	
1550,786	-71,84	
1550,788	-69,53	
1550,790	-72,56	
1550,792	-72,56	
1550,794	-72,56	
1550,796	-72,56	
1550,798	-72,56	
1550,800	-72,17	
1550,802	-69,84	
1550,804	-69,35	
1550,806	-72,56	
1550,808	-72,56	
1550,810	-72,29	
1550,812	-70,24	
1550,814	-72,56	
1550,816	-72,56	
1550,818	-72,56	
1550,820	-72,56	
1550,822	-72,56	
1550,824	-72,56	
1550,826	-72,56	
1550,828	-66,68	
1550,830	-66,24	
1550,832	-72,49	
1550,834	-67,63	
1550,836	-72,56	
1550,838	-71,70	
1550,840	-72,56	
1550,842	-69,86	
1550,844	-71,66	
1550,846	-72,56	
1550,848	-72,56	
1550,850	-70,26	
1550,852	-72,56	
1550,854	-69,04	
1550,856	-72,56	
1550,858	-71,01	
1550,860	-71,65	
1550,862	-72,56	
1550,864	-68,61	
1550,866	-69,49	
1550,868	-72,56	
1550,870	-69,78	
1550,872	-71,13	
1550,874	-72,56	
1550,876	-72,56	
1550,878	-72,56	
1550,880	-71,67	
1550,882	-72,56	
1550,884	-72,56	
1550,886	-72,56	
1550,888	-72,56	
1550,890	-70,11	
1550,892	-72,56	
1550,894	-72,56	
1550,896	-67,71	
1550,898	-71,55	
1550,900	-68,98	
1550,902	-68,40	
1550,904	-68,34	
1550,906	-70,36	
1550,908	-72,56	
1550,910	-72,56	
1550,912	-71,67	
1550,914	-71,07	
1550,916	-69,50	
1550,918	-72,56	
1550,920	-69,24	
1550,922	-72,56	
1550,924	-72,56	
1550,926	-70,21	
1550,928	-72,56	
1550,930	-70,33	
1550,932	-67,87	
1550,934	-69,09	
1550,936	-68,17	
1550,938	-72,56	
1550,940	-72,56	
1550,942	-72,56	
1550,944	-72,56	
1550,946	-71,35	
1550,948	-69,82	
1550,950	-70,00	
1550,952	-71,52	
1550,954	-72,56	
1550,956	-70,06	
1550,958	-69,99	
1550,960	-69,51	
1550,962	-72,56	
1550,964	-72,56	
1550,966	-68,53	
1550,968	-69,44	
1550,970	-70,04	
1550,972	-71,18	
1550,974	-72,56	
1550,976	-72,56	
1550,978	-68,15	
1550,980	-72,56	
1550,982	-70,25	
1550,984	-68,49	
1550,986	-72,56	
1550,988	-72,56	
1550,990	-72,56	
1550,992	-72,56	
1550,994	-72,56	
1550,996	-70,71	
1550,998	-64,95	
1551,000	-70,63	
1551,002	-71,53	
1551,004	-69,70	
1551,006	-72,08	
1551,008	-72,56	
1551,010	-72,56	
1551,012	-72,56	
1551,014	-72,56	
1551,016	-71,57	
1551,018	-71,54	
1551,020	-72,56	
1551,022	-69,42	
1551,024	-72,56	
1551,026	-71,76	
1551,028	-69,42	
1551,030	-71,49	
1551,032	-72,56	
1551,034	-69,70	
1551,036	-68,56	
1551,038	-70,29	
1551,040	-69,10	
1551,042	-72,56	
1551,044	-67,03	
1551,046	-72,56	
1551,048	-72,56	
1551,050	-72,56	
1551,052	-72,56	
1551,054	-67,32	
1551,056	-72,56	
1551,058	-72,56	
1551,060	-72,56	
1551,062	-72,56	
1551,064	-70,31	
1551,066	-71,98	
1551,068	-72,56	
1551,070	-70,82	
1551,072	-70,53	
1551,074	-68,72	
1551,076	-70,53	
1551,078	-68,05	
1551,080	-68,56	
1551,082	-68,13	
1551,084	-70,12	
1551,086	-72,48	
1551,088	-69,50	
1551,090	-72,56	
1551,092	-69,29	
1551,094	-68,77	
1551,096	-68,72	
1551,098	-66,82	
1551,100	-68,50	
1551,102	-72,56	
1551,104	-72,56	
1551,106	-72,56	
1551,108	-72,56	
1551,110	-72,56	
1551,112	-68,22	
1551,114	-67,53	
1551,116	-72,56	
1551,118	-65,52	
1551,120	-69,15	
1551,122	-72,56	
1551,124	-72,56	
1551,126	-72,56	
1551,128	-72,56	
1551,130	-72,56	
1551,132	-72,56	
1551,134	-72,56	
1551,136	-72,56	
1551,138	-69,07	
1551,140	-72,56	
1551,142	-72,56	
1551,144	-72,56	
1551,146	-72,51	
1551,148	-68,64	
1551,150	-69,05	
1551,152	-72,12	
1551,154	-72,31	
1551,156	-72,56	
1551,158	-68,36	
1551,160	-72,56	
1551,162	-72,56	
1551,164	-72,56	
1551,166	-72,56	
1551,168	-70,11	
1551,170	-69,19	
1551,172	-68,94	
1551,174	-66,80	
1551,176	-69,86	
1551,178	-72,56	
1551,180	-72,56	
1551,182	-72,56	
1551,184	-72,56	
1551,186	-72,56	
1551,188	-72,56	
1551,190	-72,56	
1551,192	-72,56	
1551,194	-69,53	
1551,196	-68,16	
1551,198	-68,94	
1551,200	-70,56	
1551,202	-72,56	
1551,204	-72,56	
1551,206	-71,66	
1551,208	-72,56	
1551,210	-72,56	
1551,212	-72,56	
1551,214	-72,56	
1551,216	-72,56	
1551,218	-71,45	
1551,220	-72,56	
1551,222	-72,56	
1551,224	-72,56	
1551,226	-70,96	
1551,228	-72,56	
1551,230	-71,85	
1551,232	-72,56	
1551,234	-69,05	
1551,236	-68,04	
1551,238	-72,56	
1551,240	-72,56	
1551,242	-72,56	
1551,244	-72,56	
1551,246	-72,56	
1551,248	-69,44	
1551,250	-68,84	
1551,252	-72,56	
1551,254	-70,88	
1551,256	-69,35	
1551,258	-72,56	
1551,260	-71,25	
1551,262	-71,30	
1551,264	-69,94	
1551,266	-69,15	
1551,268	-69,76	
1551,270	-67,42	
1551,272	-72,56	
1551,274	-72,56	
1551,276	-72,56	
1551,278	-72,56	
1551,280	-72,56	
1551,282	-72,00	
1551,284	-70,29	
1551,286	-70,47	
1551,288	-68,95	
1551,290	-69,86	
1551,292	-72,56	
1551,294	-68,26	
1551,296	-67,32	
1551,298	-72,56	
1551,300	-72,56	
1551,302	-72,56	
1551,304	-72,56	
1551,306	-68,14	
1551,308	-71,10	
1551,310	-70,49	
1551,312	-70,44	
1551,314	-72,56	
1551,316	-72,56	
1551,318	-68,15	
1551,320	-71,35	
1551,322	-72,56	
1551,324	-68,49	
1551,326	-70,90	
1551,328	-68,10	
1551,330	-69,11	
1551,332	-69,39	
1551,334	-72,56	
1551,336	-72,56	
1551,338	-72,56	
1551,340	-70,57	
1551,342	-72,56	
1551,344	-68,28	
1551,346	-70,37	
1551,348	-72,56	
1551,350	-72,56	
1551,352	-72,56	
1551,354	-68,62	
1551,356	-70,06	
1551,358	-72,56	
1551,360	-71,53	
1551,362	-72,56	
1551,364	-72,56	
1551,366	-72,56	
1551,368	-72,09	
1551,370	-68,60	
1551,372	-71,00	
1551,374	-72,56	
1551,376	-72,56	
1551,378	-70,31	
1551,380	-70,54	
1551,382	-70,92	
1551,384	-72,56	
1551,386	-72,56	
1551,388	-71,35	
1551,390	-72,56	
1551,392	-72,56	
1551,394	-69,82	
1551,396	-69,05	
1551,398	-72,56	
1551,400	-68,90	
1551,402	-72,56	
1551,404	-72,56	
1551,406	-72,56	
1551,408	-68,64	
1551,410	-68,25	
1551,412	-72,56	
1551,414	-72,56	
1551,416	-71,27	
1551,418	-68,95	
1551,420	-69,75	
1551,422	-70,71	
1551,424	-70,32	
1551,426	-69,11	
1551,428	-67,14	
1551,430	-69,47	
1551,432	-72,56	
1551,434	-72,56	
1551,436	-70,71	
1551,438	-72,56	
1551,440	-72,56	
1551,442	-72,56	
1551,444	-72,08	
1551,446	-67,88	
1551,448	-71,85	
1551,450	-72,56	
1551,452	-71,78	
1551,454	-72,56	
1551,456	-68,65	
1551,458	-72,56	
1551,460	-72,56	
1551,462	-72,56	
1551,464	-72,56	
1551,466	-72,56	
1551,468	-67,64	
1551,470	-67,20	
1551,472	-68,21	
1551,474	-66,83	
1551,476	-67,45	
1551,478	-72,56	
1551,480	-72,56	
1551,482	-72,56	
1551,484	-72,56	
1551,486	-72,56	
1551,488	-72,56	
1551,490	-72,56	
1551,492	-72,56	
1551,494	-72,56	
1551,496	-68,72	
1551,498	-71,83	
1551,500	-72,56	
1551,502	-72,56	
1551,504	-72,56	
1551,506	-72,56	
1551,508	-69,46	
1551,510	-71,93	
1551,512	-70,64	
1551,514	-70,17	
1551,516	-69,28	
1551,518	-68,83	
1551,520	-71,08	
1551,522	-72,56	
1551,524	-72,56	
1551,526	-72,56	
1551,528	-72,56	
1551,530	-72,56	
1551,532	-72,56	
1551,534	-72,56	
1551,536	-72,56	
1551,538	-72,56	
1551,540	-69,62	
1551,542	-71,10	
1551,544	-67,21	
1551,546	-68,44	
1551,548	-72,56	
1551,550	-69,93	
1551,552	-72,56	
1551,554	-68,31	
1551,556	-72,56	
1551,558	-72,56	
1551,560	-72,56	
1551,562	-72,56	
1551,564	-72,56	
1551,566	-72,56	
1551,568	-72,56	
1551,570	-72,48	
1551,572	-69,19	
1551,574	-72,01	
1551,576	-71,70	
1551,578	-68,16	
1551,580	-68,22	
1551,582	-72,56	
1551,584	-72,56	
1551,586	-68,61	
1551,588	-72,56	
1551,590	-71,71	
1551,592	-72,56	
1551,594	-72,56	
1551,596	-72,56	
1551,598	-72,56	
1551,600	-68,24	
1551,602	-69,90	
1551,604	-72,56	
1551,606	-72,56	
1551,608	-72,56	
1551,610	-71,80	
1551,612	-70,53	
1551,614	-72,56	
1551,616	-72,56	
1551,618	-72,56	
1551,620	-72,56	
1551,622	-72,56	
1551,624	-70,85	
1551,626	-69,63	
1551,628	-71,07	
1551,630	-71,27	
1551,632	-68,18	
1551,634	-72,56	
1551,636	-69,02	
1551,638	-71,22	
1551,640	-72,56	
1551,642	-72,56	
1551,644	-71,24	
1551,646	-72,56	
1551,648	-72,56	
1551,650	-72,56	
1551,652	-72,56	
1551,654	-71,43	
1551,656	-72,56	
1551,658	-72,56	
1551,660	-72,56	
1551,662	-70,61	
1551,664	-70,72	
1551,666	-72,56	
1551,668	-72,56	
1551,670	-72,56	
1551,672	-72,56	
1551,674	-71,05	
1551,676	-72,56	
1551,678	-72,56	
1551,680	-72,56	
1551,682	-65,96	
1551,684	-67,90	
1551,686	-72,24	
1551,688	-72,56	
1551,690	-72,47	
1551,692	-72,56	
1551,694	-72,56	
1551,696	-72,56	
1551,698	-72,56	
1551,700	-72,56	
1551,702	-72,56	
1551,704	-72,56	
1551,706	-72,56	
1551,708	-70,27	
1551,710	-72,56	
1551,712	-66,21	
1551,714	-70,60	
1551,716	-72,47	
1551,718	-68,96	
1551,720	-72,56	
1551,722	-72,56	
1551,724	-72,56	
1551,726	-72,56	
1551,728	-72,56	
1551,730	-72,56	
1551,732	-72,56	
1551,734	-72,17	
1551,736	-68,02	
1551,738	-72,56	
1551,740	-72,56	
1551,742	-72,56	
1551,744	-72,56	
1551,746	-72,56	
1551,748	-71,17	
1551,750	-72,49	
1551,752	-72,56	
1551,754	-72,56	
1551,756	-72,56	
1551,758	-72,56	
1551,760	-72,56	
1551,762	-72,56	
1551,764	-72,56	
1551,766	-72,56	
1551,768	-72,56	
1551,770	-72,32	
1551,772	-72,56	
1551,774	-72,56	
1551,776	-72,25	
1551,778	-70,82	
1551,780	-72,56	
1551,782	-72,56	
1551,784	-70,06	
1551,786	-72,56	
1551,788	-72,56	
1551,790	-72,56	
1551,792	-72,56	
1551,794	-72,56	
1551,796	-72,56	
1551,798	-72,56	
1551,800	-72,56	
1551,802	-70,51	
1551,804	-68,24	
1551,806	-70,94	
1551,808	-72,56	
1551,810	-72,56	
1551,812	-72,56	
1551,814	-72,56	
1551,816	-71,26	
1551,818	-72,56	
1551,820	-72,56	
1551,822	-72,56	
1551,824	-72,56	
1551,826	-72,17	
1551,828	-72,56	
1551,830	-72,56	
1551,832	-72,53	
1551,834	-68,84	
1551,836	-69,39	
1551,838	-69,67	
1551,840	-72,56	
1551,842	-72,56	
1551,844	-72,56	
1551,846	-72,56	
1551,848	-72,56	
1551,850	-70,66	
1551,852	-72,56	
1551,854	-72,56	
1551,856	-72,56	
1551,858	-72,39	
1551,860	-68,82	
1551,862	-69,93	
1551,864	-70,74	
1551,866	-72,56	
1551,868	-72,56	
1551,870	-70,35	
1551,872	-72,56	
1551,874	-68,54	
1551,876	-67,91	
1551,878	-68,76	
1551,880	-71,92	
1551,882	-72,56	
1551,884	-72,56	
1551,886	-72,56	
1551,888	-72,56	
1551,890	-72,56	
1551,892	-72,56	
1551,894	-72,56	
1551,896	-72,56	
1551,898	-72,56	
1551,900	-69,09	
1551,902	-72,56	
1551,904	-72,56	
1551,906	-72,56	
1551,908	-72,56	
1551,910	-72,56	
1551,912	-72,56	
1551,914	-72,56	
1551,916	-72,56	
1551,918	-72,56	
1551,920	-69,40	
1551,922	-72,56	
1551,924	-71,37	
1551,926	-68,88	
1551,928	-72,56	
1551,930	-70,40	
1551,932	-72,56	
1551,934	-70,35	
1551,936	-71,55	
1551,938	-72,56	
1551,940	-72,56	
1551,942	-72,56	
1551,944	-72,56	
1551,946	-70,63	
1551,948	-72,56	
1551,950	-68,92	
1551,952	-67,52	
1551,954	-70,99	
1551,956	-72,12	
1551,958	-70,45	
1551,960	-68,90	
1551,962	-69,74	
1551,964	-72,56	
1551,966	-72,56	
1551,968	-72,56	
1551,970	-72,50	
1551,972	-72,56	
1551,974	-72,56	
1551,976	-72,56	
1551,978	-72,56	
1551,980	-72,56	
1551,982	-72,56	
1551,984	-72,56	
1551,986	-72,56	
1551,988	-72,56	
1551,990	-72,56	
1551,992	-68,35	
1551,994	-67,22	
1551,996	-68,68	
1551,998	-68,19	
1552,000	-72,56	
1552,002	-72,56	
1552,004	-72,56	
1552,006	-72,56	
1552,008	-72,56	
1552,010	-70,06	
1552,012	-67,35	
1552,014	-72,56	
1552,016	-72,56	
1552,018	-72,56	
1552,020	-68,39	
1552,022	-67,93	
1552,024	-72,56	
1552,026	-72,56	
1552,028	-72,56	
1552,030	-72,56	
1552,032	-72,56	
1552,034	-72,56	
1552,036	-65,46	
1552,038	-72,56	
1552,040	-71,70	
1552,042	-68,53	
1552,044	-67,79	
1552,046	-72,56	
1552,048	-72,56	
1552,050	-72,56	
1552,052	-72,56	
1552,054	-72,56	
1552,056	-72,56	
1552,058	-72,56	
1552,060	-72,47	
1552,062	-72,56	
1552,064	-70,76	
1552,066	-72,56	
1552,068	-72,56	
1552,070	-72,56	
1552,072	-72,56	
1552,074	-68,09	
1552,076	-72,10	
1552,078	-72,56	
1552,080	-72,56	
1552,082	-70,60	
1552,084	-72,56	
1552,086	-72,56	
1552,088	-72,56	
1552,090	-72,27	
1552,092	-72,56	
1552,094	-72,56	
1552,096	-72,56	
1552,098	-72,56	
1552,100	-72,56	
1552,102	-71,57	
1552,104	-72,56	
1552,106	-69,71	
1552,108	-69,49	
1552,110	-72,56	
1552,112	-72,56	
1552,114	-69,93	
1552,116	-72,45	
1552,118	-72,56	
1552,120	-72,56	
1552,122	-72,56	
1552,124	-69,32	
1552,126	-66,09	
1552,128	-69,44	
1552,130	-72,56	
1552,132	-71,99	
1552,134	-72,56	
1552,136	-72,56	
1552,138	-72,56	
1552,140	-72,56	
1552,142	-72,56	
1552,144	-72,56	
1552,146	-72,56	
1552,148	-72,56	
1552,150	-72,56	
1552,152	-72,56	
1552,154	-72,56	
1552,156	-72,56	
1552,158	-69,12	
1552,160	-72,56	
1552,162	-67,65	
1552,164	-71,05	
1552,166	-72,56	
1552,168	-72,56	
1552,170	-72,56	
1552,172	-72,56	
1552,174	-72,56	
1552,176	-72,56	
1552,178	-72,56	
1552,180	-71,25	
1552,182	-67,58	
1552,184	-72,56	
1552,186	-72,56	
1552,188	-72,56	
1552,190	-71,95	
1552,192	-72,56	
1552,194	-67,33	
1552,196	-69,70	
1552,198	-72,56	
1552,200	-72,56	
1552,202	-72,56	
1552,204	-72,56	
1552,206	-72,56	
1552,208	-67,87	
1552,210	-72,56	
1552,212	-72,56	
1552,214	-71,48	
1552,216	-72,56	
1552,218	-72,56	
1552,220	-72,56	
1552,222	-72,56	
1552,224	-70,97	
1552,226	-69,11	
1552,228	-68,64	
1552,230	-69,13	
1552,232	-68,26	
1552,234	-70,19	
1552,236	-72,56	
1552,238	-70,92	
1552,240	-72,56	
1552,242	-72,56	
1552,244	-72,56	
1552,246	-72,56	
1552,248	-72,56	
1552,250	-68,75	
1552,252	-69,06	
1552,254	-72,56	
1552,256	-72,56	
1552,258	-72,56	
1552,260	-72,56	
1552,262	-72,56	
1552,264	-72,56	
1552,266	-72,56	
1552,268	-68,51	
1552,270	-70,21	
1552,272	-72,56	
1552,274	-72,56	
1552,276	-72,56	
1552,278	-72,56	
1552,280	-72,56	
1552,282	-72,56	
1552,284	-72,21	
1552,286	-71,08	
1552,288	-72,56	
1552,290	-72,56	
1552,292	-72,26	
1552,294	-70,13	
1552,296	-70,68	
1552,298	-71,32	
1552,300	-72,56	
1552,302	-72,53	
1552,304	-66,24	
1552,306	-68,35	
1552,308	-72,56	
1552,310	-72,56	
1552,312	-72,56	
1552,314	-72,56	
1552,316	-72,56	
1552,318	-72,56	
1552,320	-71,24	
1552,322	-68,72	
1552,324	-69,67	
1552,326	-69,34	
1552,328	-72,56	
1552,330	-69,68	
1552,332	-72,35	
1552,334	-72,56	
1552,336	-72,56	
1552,338	-72,56	
1552,340	-72,56	
1552,342	-70,63	
1552,344	-71,93	
1552,346	-69,64	
1552,348	-72,56	
1552,350	-72,56	
1552,352	-72,56	
1552,354	-71,86	
1552,356	-72,56	
1552,358	-72,56	
1552,360	-71,79	
1552,362	-70,63	
1552,364	-69,99	
1552,366	-72,56	
1552,368	-72,56	
1552,370	-72,56	
1552,372	-72,56	
1552,374	-72,56	
1552,376	-71,58	
1552,378	-69,03	
1552,380	-72,56	
1552,382	-70,34	
1552,384	-72,56	
1552,386	-72,56	
1552,388	-72,56	
1552,390	-71,37	
1552,392	-72,56	
1552,394	-72,56	
1552,396	-72,56	
1552,398	-72,56	
1552,400	-72,56	
1552,402	-70,68	
1552,404	-69,01	
1552,406	-72,56	
1552,408	-72,56	
1552,410	-70,90	
1552,412	-67,30	
1552,414	-72,56	
1552,416	-72,56	
1552,418	-72,56	
1552,420	-71,76	
1552,422	-72,56	
1552,424	-72,56	
1552,426	-72,56	
1552,428	-72,56	
1552,430	-72,56	
1552,432	-72,56	
1552,434	-72,56	
1552,436	-72,56	
1552,438	-72,56	
1552,440	-72,56	
1552,442	-72,56	
1552,444	-72,56	
1552,446	-65,26	
1552,448	-64,99	
1552,450	-66,44	
1552,452	-72,56	
1552,454	-72,56	
1552,456	-72,20	
1552,458	-69,67	
1552,460	-72,56	
1552,462	-72,56	
1552,464	-72,56	
1552,466	-71,34	
1552,468	-68,82	
1552,470	-70,68	
1552,472	-72,23	
1552,474	-68,49	
1552,476	-72,56	
1552,478	-72,56	
1552,480	-72,56	
1552,482	-72,56	
1552,484	-72,56	
1552,486	-68,87	
1552,488	-70,23	
1552,490	-71,82	
1552,492	-71,91	
1552,494	-70,96	
1552,496	-72,56	
1552,498	-72,56	
1552,500	-72,56	
1552,502	-72,56	
1552,504	-72,56	
1552,506	-72,56	
1552,508	-72,56	
1552,510	-67,47	
1552,512	-72,30	
1552,514	-72,56	
1552,516	-68,87	
1552,518	-72,56	
1552,520	-69,52	
1552,522	-68,69	
1552,524	-72,47	
1552,526	-72,34	
1552,528	-72,56	
1552,530	-72,56	
1552,532	-72,56	
1552,534	-72,56	
1552,536	-72,56	
1552,538	-67,50	
1552,540	-68,21	
1552,542	-69,24	
1552,544	-69,54	
1552,546	-69,84	
1552,548	-72,56	
1552,550	-70,11	
1552,552	-72,56	
1552,554	-72,56	
1552,556	-72,56	
1552,558	-69,79	
1552,560	-72,56	
1552,562	-70,38	
1552,564	-70,87	
1552,566	-72,56	
1552,568	-72,56	
1552,570	-68,66	
1552,572	-71,11	
1552,574	-72,56	
1552,576	-71,84	
1552,578	-72,56	
1552,580	-72,56	
1552,582	-72,56	
1552,584	-72,56	
1552,586	-72,56	
1552,588	-72,56	
1552,590	-72,56	
1552,592	-71,77	
1552,594	-72,56	
1552,596	-71,34	
1552,598	-72,56	
1552,600	-72,56	
1552,602	-70,81	
1552,604	-72,56	
1552,606	-70,15	
1552,608	-65,05	
1552,610	-68,45	
1552,612	-70,42	
1552,614	-67,73	
1552,616	-70,73	
1552,618	-72,56	
1552,620	-72,56	
1552,622	-72,56	
1552,624	-72,56	
1552,626	-72,56	
1552,628	-72,56	
1552,630	-72,56	
1552,632	-70,88	
1552,634	-72,56	
1552,636	-71,62	
1552,638	-67,52	
1552,640	-72,56	
1552,642	-72,56	
1552,644	-67,72	
1552,646	-67,17	
1552,648	-71,45	
1552,650	-72,56	
1552,652	-70,11	
1552,654	-72,56	
1552,656	-72,56	
1552,658	-72,56	
1552,660	-72,56	
1552,662	-72,56	
1552,664	-71,78	
1552,666	-69,25	
1552,668	-72,06	
1552,670	-72,56	
1552,672	-66,81	
1552,674	-72,41	
1552,676	-72,56	
1552,678	-72,56	
1552,680	-72,56	
1552,682	-72,18	
1552,684	-70,71	
1552,686	-69,56	
1552,688	-66,90	
1552,690	-72,56	
1552,692	-70,58	
1552,694	-72,56	
1552,696	-72,56	
1552,698	-69,81	
1552,700	-71,92	
1552,702	-72,56	
1552,704	-72,56	
1552,706	-72,56	
1552,708	-72,51	
1552,710	-72,56	
1552,712	-72,56	
1552,714	-69,68	
1552,716	-67,97	
1552,718	-66,84	
1552,720	-66,31	
1552,722	-67,38	
1552,724	-68,97	
1552,726	-72,56	
1552,728	-72,56	
1552,730	-72,56	
1552,732	-72,56	
1552,734	-69,47	
1552,736	-68,34	
1552,738	-72,56	
1552,740	-72,56	
1552,742	-72,56	
1552,744	-72,56	
1552,746	-71,92	
1552,748	-69,89	
1552,750	-67,81	
1552,752	-69,50	
1552,754	-72,56	
1552,756	-72,56	
1552,758	-72,56	
1552,760	-67,13	
1552,762	-72,56	
1552,764	-70,59	
1552,766	-68,11	
1552,768	-70,03	
1552,770	-67,47	
1552,772	-69,18	
1552,774	-71,00	
1552,776	-72,56	
1552,778	-72,56	
1552,780	-71,52	
1552,782	-72,56	
1552,784	-72,56	
1552,786	-72,56	
1552,788	-72,56	
1552,790	-72,56	
1552,792	-71,18	
1552,794	-72,39	
1552,796	-72,56	
1552,798	-72,56	
1552,800	-72,56	
1552,802	-72,56	
1552,804	-71,79	
1552,806	-72,05	
1552,808	-72,56	
1552,810	-70,57	
1552,812	-72,56	
1552,814	-67,41	
1552,816	-72,56	
1552,818	-71,79	
1552,820	-72,56	
1552,822	-72,56	
1552,824	-72,56	
1552,826	-70,41	
1552,828	-72,48	
1552,830	-72,56	
1552,832	-72,56	
1552,834	-72,56	
1552,836	-68,24	
1552,838	-68,98	
1552,840	-72,56	
1552,842	-68,84	
1552,844	-70,12	
1552,846	-72,56	
1552,848	-72,56	
1552,850	-72,56	
1552,852	-72,56	
1552,854	-72,56	
1552,856	-72,56	
1552,858	-72,56	
1552,860	-69,83	
1552,862	-68,24	
1552,864	-69,46	
1552,866	-71,06	
1552,868	-71,37	
1552,870	-72,10	
1552,872	-72,56	
1552,874	-72,56	
1552,876	-71,86	
1552,878	-72,56	
1552,880	-70,70	
1552,882	-72,56	
1552,884	-72,56	
1552,886	-70,02	
1552,888	-72,56	
1552,890	-72,39	
1552,892	-68,48	
1552,894	-71,90	
1552,896	-72,56	
1552,898	-69,18	
1552,900	-72,56	
1552,902	-69,02	
1552,904	-72,56	
1552,906	-72,56	
1552,908	-72,56	
1552,910	-72,16	
1552,912	-72,56	
1552,914	-68,79	
1552,916	-69,46	
1552,918	-68,02	
1552,920	-72,56	
1552,922	-72,56	
1552,924	-72,56	
1552,926	-72,56	
1552,928	-72,56	
1552,930	-72,56	
1552,932	-72,56	
1552,934	-72,56	
1552,936	-68,80	
1552,938	-66,88	
1552,940	-70,95	
1552,942	-72,50	
1552,944	-70,49	
1552,946	-72,56	
1552,948	-72,56	
1552,950	-72,56	
1552,952	-66,97	
1552,954	-72,56	
1552,956	-72,56	
1552,958	-72,56	
1552,960	-72,56	
1552,962	-72,56	
1552,964	-71,90	
1552,966	-72,28	
1552,968	-72,56	
1552,970	-68,22	
1552,972	-69,78	
1552,974	-72,56	
1552,976	-72,54	
1552,978	-72,56	
1552,980	-72,56	
1552,982	-72,56	
1552,984	-72,33	
1552,986	-67,37	
1552,988	-72,56	
1552,990	-72,56	
1552,992	-72,56	
1552,994	-72,56	
1552,996	-72,56	
1552,998	-72,56	
1553,000	-70,30	


