OSA WDM Report

Results

Trace Identification

File name:  	
Job ID:  	
Cable ID:  	
Fiber ID:  	
Customer:  	
Company:  	
Operator:  	
Maintenance reason:  	
Link ID:  	530
Orientation:  	None
System:  	
Network element:  	None
Test point:  	None
Description:  	
Comments:  	

Acquisition Conditions

Acquisition type:  	Real Time
Number of scans:  	1
Spectral range start:  	1547,000 nm
Spectral range stop:  	1553,000 nm
User calibration:  	Factory
Calibration date:  	2017-12-22
Acquisition start time:  	2025-10-01 15:19:49
Acquisition stop time:  	2025-10-01 15:19:53
Hardware model:  	FTBx-5245-EA
Serial number:  	1085217
RBW value:  	0,041 nm

Global Results

Average signal power:  	-23,78 dBm
Signal power flatness:  	---
Average OSNR:  	38,47 dB
OSNR flatness:  	---
Total power in scan range:  	-23,77 dBm
Channel count:  	1
Empty channel count:  	0

Global Test Result

Status:  	Not Active

Channel Results

Ch.#	Name	λ (nm)	Δλ (nm)	λ Peak (nm)	∆λ Peak (nm)	Signal Power (dBm)	OSNR (dB)	NoisedBm	Bandwidth 3,00 dB (nm)	Bandwidth 20,00 dB (nm)	ENBW (nm)	Transmitter Trace	Warning	
1	C_001	1549,123	-0,001	1549,120	-0,005	(i) -23,78	38,47	(IEC) -62,25	0,035	0,105	0,041	---	---	


Analysis Parameters

Default Channel Analysis

Activate default channel:  	ON
Snap to ITU grid:  	OFF
Channel width:  	20,000 nm
Signal power calculation:  	Integrated signal power
Noise for OSNR:  	Fixed range IEC based
OSNR distance:  	10,000 nm
Noise region:  	0,080 nm

Default Channel Thresholds

Signal power min.:  	-45,00 dBm
Signal power max.:  	15,00 dBm
Noise min.:  	-99,99 dBm
Noise max.:  	-40,00 dBm
OSNR min.:  	5,00 dB
OSNR max.:  	60,00 dB
Wavelength max. dev. ±:  	0,020 nm

Global Analysis

Peak detection level:  	-29,00 dBm
RBW for OSNR:  	0,400 nm
Wavelength offset:  	0,000 nm
Power offset:  	0,00 dB
Bandwidth at:  	20,00 dB

Global Thresholds

Average signal power min.:  	-45,00 dBm
Average signal power max.:  	15,00 dBm
Signal power flatness max.:  	1,00 dB
Average OSNR min.:  	5,00 dB
Average OSNR max.:  	60,00 dB
OSNR flatness max.:  	10,00 dB

Channel List

Name	λ (nm)	Channel Width	Signal Power	Noise for OSNR	Transmitter Trace	OSNR Distance	Noise Region	Signal Power Min. (dBm)	Signal Power Max. (dBm)	Noise Min. (dBm)	Noise Max. (dBm)	OSNR Min. (dB)	OSNR Max. (dB)	Wavelength Max. Dev. (nm)	
C_001	1549,124	20,000 nm	Integrated signal power	Fixed range IEC based	---	10,000 nm	0,080 nm	-45,00	15,00	-99,99	-40,00	5,00	60,00	0,020	

Graph

λ (nm)	Power (dBm)	
1547,000	-72,56	
1547,002	-72,56	
1547,004	-69,39	
1547,006	-68,86	
1547,008	-71,05	
1547,010	-70,89	
1547,012	-72,56	
1547,014	-72,56	
1547,016	-72,37	
1547,018	-72,56	
1547,020	-72,56	
1547,022	-72,56	
1547,024	-70,62	
1547,026	-67,19	
1547,028	-71,21	
1547,030	-72,56	
1547,032	-72,56	
1547,034	-71,44	
1547,036	-70,04	
1547,038	-72,56	
1547,040	-72,56	
1547,042	-72,56	
1547,044	-72,56	
1547,046	-72,56	
1547,048	-72,56	
1547,050	-71,50	
1547,052	-66,49	
1547,054	-67,55	
1547,056	-72,56	
1547,058	-72,56	
1547,060	-72,56	
1547,062	-72,56	
1547,064	-72,56	
1547,066	-72,56	
1547,068	-72,56	
1547,070	-71,28	
1547,072	-72,45	
1547,074	-72,56	
1547,076	-68,62	
1547,078	-72,56	
1547,080	-72,56	
1547,082	-68,49	
1547,084	-71,46	
1547,086	-72,19	
1547,088	-68,03	
1547,090	-71,01	
1547,092	-71,05	
1547,094	-72,56	
1547,096	-72,56	
1547,098	-72,56	
1547,100	-72,56	
1547,102	-70,71	
1547,104	-71,46	
1547,106	-72,56	
1547,108	-72,56	
1547,110	-72,56	
1547,112	-72,56	
1547,114	-72,56	
1547,116	-72,56	
1547,118	-70,49	
1547,120	-72,56	
1547,122	-72,56	
1547,124	-72,56	
1547,126	-72,56	
1547,128	-72,56	
1547,130	-72,56	
1547,132	-72,56	
1547,134	-69,13	
1547,136	-72,56	
1547,138	-72,56	
1547,140	-72,56	
1547,142	-71,03	
1547,144	-71,42	
1547,146	-72,56	
1547,148	-72,56	
1547,150	-72,56	
1547,152	-71,25	
1547,154	-68,39	
1547,156	-72,56	
1547,158	-72,23	
1547,160	-67,73	
1547,162	-68,25	
1547,164	-66,95	
1547,166	-67,51	
1547,168	-72,56	
1547,170	-72,56	
1547,172	-72,56	
1547,174	-72,56	
1547,176	-69,15	
1547,178	-72,56	
1547,180	-72,56	
1547,182	-72,56	
1547,184	-71,38	
1547,186	-72,56	
1547,188	-72,56	
1547,190	-72,56	
1547,192	-72,56	
1547,194	-72,56	
1547,196	-72,56	
1547,198	-72,56	
1547,200	-72,56	
1547,202	-72,56	
1547,204	-70,13	
1547,206	-67,58	
1547,208	-71,53	
1547,210	-72,56	
1547,212	-72,56	
1547,214	-72,56	
1547,216	-72,56	
1547,218	-72,56	
1547,220	-72,56	
1547,222	-72,56	
1547,224	-72,56	
1547,226	-72,56	
1547,228	-70,75	
1547,230	-72,56	
1547,232	-72,56	
1547,234	-72,56	
1547,236	-72,56	
1547,238	-72,56	
1547,240	-72,56	
1547,242	-68,79	
1547,244	-71,19	
1547,246	-69,92	
1547,248	-72,00	
1547,250	-72,56	
1547,252	-72,56	
1547,254	-72,56	
1547,256	-72,26	
1547,258	-69,73	
1547,260	-71,46	
1547,262	-72,56	
1547,264	-71,34	
1547,266	-70,66	
1547,268	-72,56	
1547,270	-72,56	
1547,272	-71,45	
1547,274	-72,56	
1547,276	-72,56	
1547,278	-72,56	
1547,280	-72,56	
1547,282	-70,33	
1547,284	-66,89	
1547,286	-66,92	
1547,288	-72,56	
1547,290	-72,56	
1547,292	-72,56	
1547,294	-72,56	
1547,296	-67,69	
1547,298	-70,34	
1547,300	-70,76	
1547,302	-72,56	
1547,304	-70,42	
1547,306	-71,96	
1547,308	-72,56	
1547,310	-72,56	
1547,312	-72,56	
1547,314	-72,56	
1547,316	-72,56	
1547,318	-72,56	
1547,320	-72,56	
1547,322	-72,56	
1547,324	-72,56	
1547,326	-72,56	
1547,328	-72,56	
1547,330	-72,05	
1547,332	-72,56	
1547,334	-72,56	
1547,336	-72,56	
1547,338	-72,56	
1547,340	-70,42	
1547,342	-70,00	
1547,344	-72,56	
1547,346	-72,56	
1547,348	-68,51	
1547,350	-70,11	
1547,352	-72,56	
1547,354	-72,56	
1547,356	-72,56	
1547,358	-72,56	
1547,360	-72,56	
1547,362	-72,56	
1547,364	-72,56	
1547,366	-72,56	
1547,368	-72,56	
1547,370	-70,95	
1547,372	-72,56	
1547,374	-72,56	
1547,376	-72,56	
1547,378	-70,34	
1547,380	-72,56	
1547,382	-72,56	
1547,384	-72,56	
1547,386	-72,27	
1547,388	-72,56	
1547,390	-72,56	
1547,392	-72,56	
1547,394	-72,56	
1547,396	-72,56	
1547,398	-70,43	
1547,400	-68,02	
1547,402	-69,46	
1547,404	-72,56	
1547,406	-67,72	
1547,408	-67,97	
1547,410	-72,56	
1547,412	-72,56	
1547,414	-72,56	
1547,416	-72,56	
1547,418	-72,56	
1547,420	-72,56	
1547,422	-72,56	
1547,424	-72,04	
1547,426	-72,56	
1547,428	-72,56	
1547,430	-72,56	
1547,432	-72,56	
1547,434	-70,72	
1547,436	-70,04	
1547,438	-69,63	
1547,440	-69,91	
1547,442	-72,56	
1547,444	-72,56	
1547,446	-72,56	
1547,448	-72,56	
1547,450	-70,12	
1547,452	-72,56	
1547,454	-72,56	
1547,456	-72,56	
1547,458	-72,56	
1547,460	-71,60	
1547,462	-68,51	
1547,464	-71,42	
1547,466	-72,56	
1547,468	-72,56	
1547,470	-72,56	
1547,472	-72,56	
1547,474	-72,56	
1547,476	-72,56	
1547,478	-72,56	
1547,480	-72,51	
1547,482	-72,56	
1547,484	-69,87	
1547,486	-72,56	
1547,488	-72,56	
1547,490	-72,56	
1547,492	-72,56	
1547,494	-72,56	
1547,496	-72,56	
1547,498	-67,65	
1547,500	-72,56	
1547,502	-72,56	
1547,504	-72,56	
1547,506	-72,56	
1547,508	-72,56	
1547,510	-72,56	
1547,512	-72,56	
1547,514	-72,56	
1547,516	-72,56	
1547,518	-72,56	
1547,520	-72,56	
1547,522	-72,56	
1547,524	-72,10	
1547,526	-72,17	
1547,528	-68,03	
1547,530	-67,88	
1547,532	-72,56	
1547,534	-72,56	
1547,536	-72,56	
1547,538	-71,82	
1547,540	-72,56	
1547,542	-72,56	
1547,544	-70,82	
1547,546	-68,69	
1547,548	-68,68	
1547,550	-71,14	
1547,552	-72,56	
1547,554	-72,56	
1547,556	-71,89	
1547,558	-69,55	
1547,560	-72,56	
1547,562	-72,56	
1547,564	-72,56	
1547,566	-72,56	
1547,568	-72,56	
1547,570	-72,56	
1547,572	-72,56	
1547,574	-72,56	
1547,576	-72,56	
1547,578	-72,56	
1547,580	-72,56	
1547,582	-71,80	
1547,584	-72,56	
1547,586	-72,56	
1547,588	-72,56	
1547,590	-72,56	
1547,592	-72,56	
1547,594	-72,56	
1547,596	-72,56	
1547,598	-72,56	
1547,600	-72,56	
1547,602	-72,56	
1547,604	-72,56	
1547,606	-70,46	
1547,608	-67,30	
1547,610	-72,18	
1547,612	-72,56	
1547,614	-72,56	
1547,616	-72,56	
1547,618	-72,56	
1547,620	-72,56	
1547,622	-72,56	
1547,624	-72,56	
1547,626	-72,56	
1547,628	-72,56	
1547,630	-72,56	
1547,632	-72,56	
1547,634	-72,56	
1547,636	-72,56	
1547,638	-72,56	
1547,640	-72,56	
1547,642	-72,56	
1547,644	-71,14	
1547,646	-72,56	
1547,648	-72,56	
1547,650	-72,56	
1547,652	-72,54	
1547,654	-72,56	
1547,656	-72,56	
1547,658	-72,56	
1547,660	-72,56	
1547,662	-70,42	
1547,664	-69,15	
1547,666	-72,56	
1547,668	-72,56	
1547,670	-72,56	
1547,672	-71,77	
1547,674	-70,17	
1547,676	-72,56	
1547,678	-72,56	
1547,680	-72,56	
1547,682	-72,56	
1547,684	-72,56	
1547,686	-72,56	
1547,688	-72,56	
1547,690	-72,56	
1547,692	-72,56	
1547,694	-72,56	
1547,696	-72,56	
1547,698	-72,56	
1547,700	-72,56	
1547,702	-72,56	
1547,704	-72,56	
1547,706	-72,56	
1547,708	-72,56	
1547,710	-66,86	
1547,712	-71,35	
1547,714	-68,17	
1547,716	-72,56	
1547,718	-72,56	
1547,720	-72,56	
1547,722	-72,56	
1547,724	-72,56	
1547,726	-72,56	
1547,728	-72,56	
1547,730	-72,56	
1547,732	-72,56	
1547,734	-72,56	
1547,736	-72,56	
1547,738	-72,56	
1547,740	-72,56	
1547,742	-72,56	
1547,744	-72,56	
1547,746	-72,56	
1547,748	-72,56	
1547,750	-72,56	
1547,752	-72,56	
1547,754	-72,56	
1547,756	-72,56	
1547,758	-72,56	
1547,760	-72,56	
1547,762	-72,56	
1547,764	-69,63	
1547,766	-71,95	
1547,768	-70,93	
1547,770	-68,17	
1547,772	-70,62	
1547,774	-72,56	
1547,776	-72,56	
1547,778	-72,56	
1547,780	-72,56	
1547,782	-72,56	
1547,784	-72,56	
1547,786	-72,56	
1547,788	-70,45	
1547,790	-72,56	
1547,792	-72,56	
1547,794	-70,78	
1547,796	-72,56	
1547,798	-72,24	
1547,800	-72,56	
1547,802	-70,54	
1547,804	-68,81	
1547,806	-72,56	
1547,808	-72,56	
1547,810	-72,56	
1547,812	-72,56	
1547,814	-72,56	
1547,816	-71,83	
1547,818	-72,56	
1547,820	-72,56	
1547,822	-72,56	
1547,824	-71,14	
1547,826	-72,56	
1547,828	-72,56	
1547,830	-70,33	
1547,832	-69,18	
1547,834	-71,88	
1547,836	-72,56	
1547,838	-72,56	
1547,840	-72,56	
1547,842	-71,93	
1547,844	-72,56	
1547,846	-72,56	
1547,848	-72,56	
1547,850	-72,56	
1547,852	-72,56	
1547,854	-69,38	
1547,856	-69,05	
1547,858	-72,56	
1547,860	-70,13	
1547,862	-72,56	
1547,864	-72,56	
1547,866	-72,56	
1547,868	-72,56	
1547,870	-72,56	
1547,872	-70,23	
1547,874	-72,56	
1547,876	-72,56	
1547,878	-72,56	
1547,880	-72,56	
1547,882	-72,56	
1547,884	-72,56	
1547,886	-72,56	
1547,888	-71,88	
1547,890	-70,03	
1547,892	-69,15	
1547,894	-71,43	
1547,896	-72,56	
1547,898	-72,56	
1547,900	-72,56	
1547,902	-70,40	
1547,904	-72,56	
1547,906	-72,56	
1547,908	-72,56	
1547,910	-72,56	
1547,912	-72,56	
1547,914	-72,56	
1547,916	-72,56	
1547,918	-72,56	
1547,920	-72,56	
1547,922	-70,46	
1547,924	-72,11	
1547,926	-72,56	
1547,928	-72,56	
1547,930	-72,56	
1547,932	-72,56	
1547,934	-72,56	
1547,936	-72,56	
1547,938	-72,56	
1547,940	-72,56	
1547,942	-72,56	
1547,944	-69,00	
1547,946	-68,24	
1547,948	-70,32	
1547,950	-72,56	
1547,952	-69,66	
1547,954	-72,56	
1547,956	-71,06	
1547,958	-72,56	
1547,960	-72,56	
1547,962	-72,56	
1547,964	-72,56	
1547,966	-72,56	
1547,968	-72,56	
1547,970	-72,56	
1547,972	-72,01	
1547,974	-72,56	
1547,976	-68,25	
1547,978	-72,56	
1547,980	-72,56	
1547,982	-72,56	
1547,984	-72,56	
1547,986	-72,56	
1547,988	-72,56	
1547,990	-72,56	
1547,992	-72,56	
1547,994	-72,56	
1547,996	-72,56	
1547,998	-72,56	
1548,000	-72,56	
1548,002	-72,56	
1548,004	-72,56	
1548,006	-69,62	
1548,008	-70,31	
1548,010	-72,56	
1548,012	-72,56	
1548,014	-72,56	
1548,016	-72,56	
1548,018	-72,56	
1548,020	-71,70	
1548,022	-72,56	
1548,024	-70,33	
1548,026	-71,37	
1548,028	-72,56	
1548,030	-72,56	
1548,032	-72,56	
1548,034	-72,56	
1548,036	-72,56	
1548,038	-72,56	
1548,040	-72,56	
1548,042	-69,35	
1548,044	-71,87	
1548,046	-72,56	
1548,048	-72,56	
1548,050	-72,56	
1548,052	-72,56	
1548,054	-72,56	
1548,056	-72,56	
1548,058	-70,58	
1548,060	-70,71	
1548,062	-72,56	
1548,064	-72,56	
1548,066	-72,56	
1548,068	-69,64	
1548,070	-71,38	
1548,072	-72,56	
1548,074	-72,56	
1548,076	-72,56	
1548,078	-72,56	
1548,080	-72,56	
1548,082	-72,56	
1548,084	-72,56	
1548,086	-71,49	
1548,088	-71,74	
1548,090	-72,56	
1548,092	-72,56	
1548,094	-70,33	
1548,096	-70,00	
1548,098	-72,56	
1548,100	-72,40	
1548,102	-72,56	
1548,104	-72,56	
1548,106	-72,56	
1548,108	-72,56	
1548,110	-72,56	
1548,112	-72,56	
1548,114	-72,56	
1548,116	-72,56	
1548,118	-72,56	
1548,120	-71,13	
1548,122	-72,56	
1548,124	-72,56	
1548,126	-69,30	
1548,128	-72,56	
1548,130	-72,56	
1548,132	-72,56	
1548,134	-72,56	
1548,136	-72,56	
1548,138	-72,56	
1548,140	-72,56	
1548,142	-72,56	
1548,144	-69,59	
1548,146	-72,56	
1548,148	-72,56	
1548,150	-72,56	
1548,152	-72,56	
1548,154	-72,56	
1548,156	-71,13	
1548,158	-72,56	
1548,160	-70,25	
1548,162	-72,56	
1548,164	-72,56	
1548,166	-72,56	
1548,168	-72,56	
1548,170	-72,56	
1548,172	-72,56	
1548,174	-72,56	
1548,176	-72,56	
1548,178	-70,56	
1548,180	-72,56	
1548,182	-68,77	
1548,184	-72,56	
1548,186	-70,61	
1548,188	-72,56	
1548,190	-72,56	
1548,192	-72,56	
1548,194	-72,56	
1548,196	-72,56	
1548,198	-72,56	
1548,200	-72,56	
1548,202	-71,01	
1548,204	-72,56	
1548,206	-72,56	
1548,208	-72,56	
1548,210	-72,56	
1548,212	-72,56	
1548,214	-69,15	
1548,216	-72,56	
1548,218	-72,56	
1548,220	-69,06	
1548,222	-67,44	
1548,224	-67,43	
1548,226	-70,15	
1548,228	-72,56	
1548,230	-72,56	
1548,232	-72,56	
1548,234	-72,56	
1548,236	-69,04	
1548,238	-72,56	
1548,240	-72,56	
1548,242	-72,56	
1548,244	-72,56	
1548,246	-72,56	
1548,248	-72,56	
1548,250	-72,56	
1548,252	-72,56	
1548,254	-69,60	
1548,256	-72,56	
1548,258	-72,56	
1548,260	-72,56	
1548,262	-70,75	
1548,264	-72,56	
1548,266	-72,56	
1548,268	-72,56	
1548,270	-72,56	
1548,272	-72,56	
1548,274	-72,56	
1548,276	-70,26	
1548,278	-72,56	
1548,280	-72,56	
1548,282	-67,71	
1548,284	-72,56	
1548,286	-72,56	
1548,288	-72,56	
1548,290	-72,56	
1548,292	-72,56	
1548,294	-72,56	
1548,296	-72,56	
1548,298	-72,56	
1548,300	-70,11	
1548,302	-70,12	
1548,304	-72,56	
1548,306	-72,56	
1548,308	-72,56	
1548,310	-72,56	
1548,312	-72,56	
1548,314	-72,56	
1548,316	-72,39	
1548,318	-72,06	
1548,320	-72,56	
1548,322	-72,56	
1548,324	-72,56	
1548,326	-72,56	
1548,328	-69,43	
1548,330	-71,63	
1548,332	-72,56	
1548,334	-72,56	
1548,336	-72,56	
1548,338	-72,56	
1548,340	-72,56	
1548,342	-72,56	
1548,344	-72,56	
1548,346	-72,56	
1548,348	-72,56	
1548,350	-72,56	
1548,352	-67,22	
1548,354	-68,07	
1548,356	-72,56	
1548,358	-72,56	
1548,360	-72,56	
1548,362	-72,56	
1548,364	-72,56	
1548,366	-72,56	
1548,368	-72,56	
1548,370	-72,56	
1548,372	-72,56	
1548,374	-67,07	
1548,376	-70,96	
1548,378	-72,56	
1548,380	-72,56	
1548,382	-72,56	
1548,384	-72,56	
1548,386	-72,56	
1548,388	-72,56	
1548,390	-72,56	
1548,392	-72,56	
1548,394	-72,56	
1548,396	-72,56	
1548,398	-70,47	
1548,400	-72,56	
1548,402	-72,56	
1548,404	-71,15	
1548,406	-71,03	
1548,408	-72,56	
1548,410	-72,56	
1548,412	-71,34	
1548,414	-68,56	
1548,416	-72,56	
1548,418	-70,44	
1548,420	-72,56	
1548,422	-72,56	
1548,424	-72,56	
1548,426	-72,56	
1548,428	-72,56	
1548,430	-72,56	
1548,432	-72,56	
1548,434	-72,56	
1548,436	-72,56	
1548,438	-72,21	
1548,440	-72,56	
1548,442	-72,56	
1548,444	-72,56	
1548,446	-72,56	
1548,448	-72,56	
1548,450	-72,56	
1548,452	-72,56	
1548,454	-68,20	
1548,456	-69,53	
1548,458	-72,56	
1548,460	-70,80	
1548,462	-72,56	
1548,464	-72,56	
1548,466	-72,56	
1548,468	-72,56	
1548,470	-72,56	
1548,472	-72,56	
1548,474	-68,75	
1548,476	-72,56	
1548,478	-69,60	
1548,480	-72,56	
1548,482	-72,56	
1548,484	-72,56	
1548,486	-72,56	
1548,488	-72,56	
1548,490	-72,56	
1548,492	-71,29	
1548,494	-72,56	
1548,496	-68,71	
1548,498	-72,56	
1548,500	-72,56	
1548,502	-72,56	
1548,504	-72,56	
1548,506	-72,56	
1548,508	-72,56	
1548,510	-72,56	
1548,512	-72,56	
1548,514	-72,56	
1548,516	-72,56	
1548,518	-71,96	
1548,520	-67,94	
1548,522	-66,45	
1548,524	-67,11	
1548,526	-70,48	
1548,528	-69,91	
1548,530	-72,56	
1548,532	-72,56	
1548,534	-70,35	
1548,536	-69,10	
1548,538	-71,96	
1548,540	-70,43	
1548,542	-70,43	
1548,544	-72,56	
1548,546	-72,56	
1548,548	-71,26	
1548,550	-71,48	
1548,552	-70,63	
1548,554	-71,39	
1548,556	-72,56	
1548,558	-72,56	
1548,560	-72,56	
1548,562	-72,56	
1548,564	-72,56	
1548,566	-72,56	
1548,568	-72,56	
1548,570	-71,41	
1548,572	-70,19	
1548,574	-72,56	
1548,576	-72,56	
1548,578	-72,56	
1548,580	-71,20	
1548,582	-72,56	
1548,584	-69,25	
1548,586	-72,56	
1548,588	-72,56	
1548,590	-72,56	
1548,592	-72,56	
1548,594	-72,56	
1548,596	-67,00	
1548,598	-67,98	
1548,600	-71,76	
1548,602	-71,30	
1548,604	-72,56	
1548,606	-72,56	
1548,608	-72,56	
1548,610	-72,56	
1548,612	-70,25	
1548,614	-72,06	
1548,616	-69,93	
1548,618	-71,85	
1548,620	-72,56	
1548,622	-72,56	
1548,624	-72,56	
1548,626	-70,80	
1548,628	-70,17	
1548,630	-70,03	
1548,632	-71,74	
1548,634	-72,56	
1548,636	-72,56	
1548,638	-72,56	
1548,640	-72,56	
1548,642	-72,56	
1548,644	-72,56	
1548,646	-72,56	
1548,648	-70,56	
1548,650	-72,56	
1548,652	-72,56	
1548,654	-72,51	
1548,656	-70,52	
1548,658	-72,56	
1548,660	-72,56	
1548,662	-72,56	
1548,664	-72,56	
1548,666	-72,56	
1548,668	-69,18	
1548,670	-69,68	
1548,672	-72,56	
1548,674	-72,56	
1548,676	-72,56	
1548,678	-72,56	
1548,680	-72,56	
1548,682	-72,56	
1548,684	-67,49	
1548,686	-68,39	
1548,688	-69,89	
1548,690	-67,54	
1548,692	-72,56	
1548,694	-72,56	
1548,696	-72,56	
1548,698	-72,56	
1548,700	-72,56	
1548,702	-72,56	
1548,704	-72,56	
1548,706	-72,56	
1548,708	-72,56	
1548,710	-72,56	
1548,712	-72,56	
1548,714	-72,56	
1548,716	-72,56	
1548,718	-72,56	
1548,720	-72,56	
1548,722	-72,56	
1548,724	-72,56	
1548,726	-70,28	
1548,728	-70,56	
1548,730	-68,15	
1548,732	-71,13	
1548,734	-71,82	
1548,736	-70,02	
1548,738	-72,56	
1548,740	-72,56	
1548,742	-72,56	
1548,744	-72,56	
1548,746	-72,56	
1548,748	-72,30	
1548,750	-72,56	
1548,752	-72,56	
1548,754	-72,56	
1548,756	-72,56	
1548,758	-72,56	
1548,760	-72,56	
1548,762	-72,56	
1548,764	-72,56	
1548,766	-68,74	
1548,768	-67,69	
1548,770	-72,56	
1548,772	-72,56	
1548,774	-71,66	
1548,776	-72,56	
1548,778	-72,56	
1548,780	-72,56	
1548,782	-72,56	
1548,784	-72,56	
1548,786	-69,43	
1548,788	-70,60	
1548,790	-70,45	
1548,792	-67,47	
1548,794	-72,56	
1548,796	-72,56	
1548,798	-72,56	
1548,800	-72,56	
1548,802	-69,33	
1548,804	-67,65	
1548,806	-69,07	
1548,808	-72,56	
1548,810	-71,65	
1548,812	-72,56	
1548,814	-72,56	
1548,816	-72,56	
1548,818	-70,29	
1548,820	-72,56	
1548,822	-72,56	
1548,824	-72,56	
1548,826	-72,56	
1548,828	-71,06	
1548,830	-71,02	
1548,832	-68,59	
1548,834	-66,17	
1548,836	-68,36	
1548,838	-72,56	
1548,840	-72,56	
1548,842	-72,56	
1548,844	-72,56	
1548,846	-72,56	
1548,848	-72,56	
1548,850	-70,08	
1548,852	-72,56	
1548,854	-72,56	
1548,856	-70,50	
1548,858	-72,56	
1548,860	-72,56	
1548,862	-71,78	
1548,864	-69,57	
1548,866	-66,93	
1548,868	-68,18	
1548,870	-72,56	
1548,872	-70,12	
1548,874	-70,20	
1548,876	-68,93	
1548,878	-70,67	
1548,880	-72,16	
1548,882	-72,56	
1548,884	-72,56	
1548,886	-72,56	
1548,888	-72,56	
1548,890	-72,56	
1548,892	-72,56	
1548,894	-68,89	
1548,896	-69,27	
1548,898	-70,82	
1548,900	-69,56	
1548,902	-69,12	
1548,904	-72,56	
1548,906	-72,56	
1548,908	-72,56	
1548,910	-71,17	
1548,912	-72,56	
1548,914	-69,85	
1548,916	-66,90	
1548,918	-67,40	
1548,920	-69,11	
1548,922	-68,57	
1548,924	-67,30	
1548,926	-69,39	
1548,928	-69,57	
1548,930	-72,56	
1548,932	-72,56	
1548,934	-72,56	
1548,936	-72,56	
1548,938	-72,56	
1548,940	-68,55	
1548,942	-68,04	
1548,944	-66,06	
1548,946	-64,73	
1548,948	-63,87	
1548,950	-64,30	
1548,952	-64,47	
1548,954	-64,11	
1548,956	-62,92	
1548,958	-62,20	
1548,960	-63,42	
1548,962	-63,25	
1548,964	-62,64	
1548,966	-62,76	
1548,968	-63,59	
1548,970	-63,15	
1548,972	-62,44	
1548,974	-62,87	
1548,976	-63,42	
1548,978	-62,80	
1548,980	-62,21	
1548,982	-61,36	
1548,984	-61,95	
1548,986	-61,09	
1548,988	-61,16	
1548,990	-59,98	
1548,992	-59,69	
1548,994	-59,74	
1548,996	-59,34	
1548,998	-58,74	
1549,000	-58,50	
1549,002	-58,31	
1549,004	-57,79	
1549,006	-57,75	
1549,008	-56,87	
1549,010	-56,31	
1549,012	-56,06	
1549,014	-55,70	
1549,016	-55,24	
1549,018	-54,89	
1549,020	-54,58	
1549,022	-54,28	
1549,024	-53,92	
1549,026	-53,70	
1549,028	-53,52	
1549,030	-53,11	
1549,032	-52,88	
1549,034	-52,84	
1549,036	-52,72	
1549,038	-52,52	
1549,040	-52,51	
1549,042	-52,31	
1549,044	-52,29	
1549,046	-52,04	
1549,048	-51,84	
1549,050	-51,63	
1549,052	-51,44	
1549,054	-51,14	
1549,056	-50,61	
1549,058	-49,85	
1549,060	-48,79	
1549,062	-47,53	
1549,064	-46,21	
1549,066	-44,82	
1549,068	-43,81	
1549,070	-42,37	
1549,072	-41,39	
1549,074	-40,31	
1549,076	-38,87	
1549,078	-37,63	
1549,080	-36,62	
1549,082	-35,79	
1549,084	-34,86	
1549,086	-33,75	
1549,088	-32,64	
1549,090	-31,64	
1549,092	-30,78	
1549,094	-29,96	
1549,096	-29,11	
1549,098	-28,30	
1549,100	-27,56	
1549,102	-26,90	
1549,104	-26,13	
1549,106	-25,52	
1549,108	-25,01	
1549,110	-24,55	
1549,112	-24,16	
1549,114	-23,89	
1549,116	-23,72	
1549,118	-23,62	
1549,120	-23,59	
1549,122	-23,65	
1549,124	-23,78	
1549,126	-23,98	
1549,128	-24,24	
1549,130	-24,75	
1549,132	-25,13	
1549,134	-25,51	
1549,136	-26,17	
1549,138	-26,62	
1549,140	-27,35	
1549,142	-27,99	
1549,144	-28,65	
1549,146	-29,39	
1549,148	-30,23	
1549,150	-31,11	
1549,152	-31,94	
1549,154	-32,85	
1549,156	-33,86	
1549,158	-34,71	
1549,160	-35,76	
1549,162	-36,76	
1549,164	-37,70	
1549,166	-38,87	
1549,168	-40,36	
1549,170	-41,56	
1549,172	-42,89	
1549,174	-43,99	
1549,176	-44,90	
1549,178	-45,94	
1549,180	-46,86	
1549,182	-47,64	
1549,184	-48,43	
1549,186	-48,86	
1549,188	-49,19	
1549,190	-49,47	
1549,192	-49,67	
1549,194	-49,92	
1549,196	-50,25	
1549,198	-50,39	
1549,200	-50,58	
1549,202	-50,81	
1549,204	-51,04	
1549,206	-51,22	
1549,208	-51,39	
1549,210	-51,58	
1549,212	-51,79	
1549,214	-51,98	
1549,216	-52,09	
1549,218	-52,33	
1549,220	-52,61	
1549,222	-52,80	
1549,224	-53,13	
1549,226	-53,37	
1549,228	-54,03	
1549,230	-54,37	
1549,232	-54,65	
1549,234	-54,96	
1549,236	-55,54	
1549,238	-55,83	
1549,240	-56,25	
1549,242	-56,73	
1549,244	-56,93	
1549,246	-57,44	
1549,248	-58,10	
1549,250	-58,18	
1549,252	-58,48	
1549,254	-59,02	
1549,256	-59,11	
1549,258	-59,62	
1549,260	-59,13	
1549,262	-59,59	
1549,264	-60,04	
1549,266	-60,06	
1549,268	-60,92	
1549,270	-61,12	
1549,272	-60,41	
1549,274	-60,69	
1549,276	-60,93	
1549,278	-61,09	
1549,280	-61,36	
1549,282	-61,30	
1549,284	-61,51	
1549,286	-62,02	
1549,288	-61,85	
1549,290	-62,02	
1549,292	-62,39	
1549,294	-63,07	
1549,296	-63,22	
1549,298	-63,04	
1549,300	-63,20	
1549,302	-64,07	
1549,304	-65,59	
1549,306	-65,33	
1549,308	-64,90	
1549,310	-63,56	
1549,312	-63,19	
1549,314	-63,00	
1549,316	-63,10	
1549,318	-64,17	
1549,320	-65,36	
1549,322	-66,19	
1549,324	-64,52	
1549,326	-64,26	
1549,328	-65,21	
1549,330	-65,49	
1549,332	-64,31	
1549,334	-64,35	
1549,336	-63,20	
1549,338	-64,07	
1549,340	-65,93	
1549,342	-69,07	
1549,344	-72,49	
1549,346	-69,61	
1549,348	-67,03	
1549,350	-65,00	
1549,352	-63,46	
1549,354	-64,44	
1549,356	-64,84	
1549,358	-65,55	
1549,360	-68,70	
1549,362	-65,11	
1549,364	-65,95	
1549,366	-65,75	
1549,368	-65,73	
1549,370	-66,67	
1549,372	-67,33	
1549,374	-66,56	
1549,376	-65,59	
1549,378	-66,19	
1549,380	-68,77	
1549,382	-67,21	
1549,384	-66,35	
1549,386	-66,56	
1549,388	-65,12	
1549,390	-65,42	
1549,392	-70,15	
1549,394	-67,26	
1549,396	-67,43	
1549,398	-68,05	
1549,400	-67,24	
1549,402	-66,20	
1549,404	-65,62	
1549,406	-66,06	
1549,408	-65,03	
1549,410	-67,78	
1549,412	-68,68	
1549,414	-65,34	
1549,416	-72,03	
1549,418	-67,89	
1549,420	-68,32	
1549,422	-66,21	
1549,424	-67,04	
1549,426	-69,16	
1549,428	-68,97	
1549,430	-67,76	
1549,432	-68,84	
1549,434	-70,64	
1549,436	-70,00	
1549,438	-68,16	
1549,440	-65,82	
1549,442	-72,56	
1549,444	-66,57	
1549,446	-68,05	
1549,448	-66,26	
1549,450	-66,75	
1549,452	-72,56	
1549,454	-67,73	
1549,456	-68,47	
1549,458	-70,00	
1549,460	-68,92	
1549,462	-68,27	
1549,464	-66,70	
1549,466	-65,80	
1549,468	-68,22	
1549,470	-68,72	
1549,472	-64,90	
1549,474	-72,56	
1549,476	-72,56	
1549,478	-67,82	
1549,480	-71,05	
1549,482	-71,54	
1549,484	-72,56	
1549,486	-72,56	
1549,488	-72,56	
1549,490	-68,16	
1549,492	-67,49	
1549,494	-72,56	
1549,496	-72,56	
1549,498	-72,56	
1549,500	-67,41	
1549,502	-67,34	
1549,504	-72,56	
1549,506	-68,92	
1549,508	-72,56	
1549,510	-69,15	
1549,512	-67,02	
1549,514	-68,77	
1549,516	-71,71	
1549,518	-72,56	
1549,520	-70,78	
1549,522	-66,35	
1549,524	-68,37	
1549,526	-70,63	
1549,528	-70,45	
1549,530	-69,56	
1549,532	-71,59	
1549,534	-67,38	
1549,536	-68,28	
1549,538	-68,15	
1549,540	-68,22	
1549,542	-70,04	
1549,544	-71,13	
1549,546	-68,60	
1549,548	-67,86	
1549,550	-71,57	
1549,552	-66,59	
1549,554	-66,83	
1549,556	-67,27	
1549,558	-69,45	
1549,560	-68,95	
1549,562	-72,28	
1549,564	-72,56	
1549,566	-71,11	
1549,568	-67,58	
1549,570	-67,83	
1549,572	-72,07	
1549,574	-70,59	
1549,576	-66,51	
1549,578	-72,56	
1549,580	-70,58	
1549,582	-69,95	
1549,584	-72,10	
1549,586	-71,20	
1549,588	-67,74	
1549,590	-68,03	
1549,592	-72,56	
1549,594	-72,56	
1549,596	-68,99	
1549,598	-70,42	
1549,600	-72,56	
1549,602	-66,51	
1549,604	-72,56	
1549,606	-71,86	
1549,608	-72,56	
1549,610	-72,56	
1549,612	-69,43	
1549,614	-66,58	
1549,616	-68,99	
1549,618	-72,56	
1549,620	-72,04	
1549,622	-72,56	
1549,624	-71,37	
1549,626	-72,56	
1549,628	-72,56	
1549,630	-70,05	
1549,632	-68,09	
1549,634	-69,30	
1549,636	-72,56	
1549,638	-72,56	
1549,640	-71,52	
1549,642	-68,26	
1549,644	-69,10	
1549,646	-70,51	
1549,648	-72,56	
1549,650	-72,56	
1549,652	-68,16	
1549,654	-67,32	
1549,656	-70,48	
1549,658	-72,56	
1549,660	-72,56	
1549,662	-68,93	
1549,664	-72,56	
1549,666	-72,56	
1549,668	-69,64	
1549,670	-68,27	
1549,672	-69,98	
1549,674	-69,61	
1549,676	-67,98	
1549,678	-68,60	
1549,680	-72,17	
1549,682	-72,56	
1549,684	-71,84	
1549,686	-69,82	
1549,688	-70,50	
1549,690	-72,56	
1549,692	-72,56	
1549,694	-70,38	
1549,696	-68,60	
1549,698	-68,73	
1549,700	-71,04	
1549,702	-67,95	
1549,704	-68,86	
1549,706	-70,83	
1549,708	-67,69	
1549,710	-68,03	
1549,712	-72,56	
1549,714	-72,56	
1549,716	-72,56	
1549,718	-72,56	
1549,720	-72,56	
1549,722	-69,85	
1549,724	-72,56	
1549,726	-72,56	
1549,728	-67,16	
1549,730	-69,89	
1549,732	-72,56	
1549,734	-70,95	
1549,736	-72,56	
1549,738	-72,56	
1549,740	-72,56	
1549,742	-72,56	
1549,744	-72,56	
1549,746	-71,51	
1549,748	-69,70	
1549,750	-72,56	
1549,752	-72,56	
1549,754	-72,56	
1549,756	-72,56	
1549,758	-69,00	
1549,760	-72,56	
1549,762	-71,05	
1549,764	-72,56	
1549,766	-66,98	
1549,768	-71,24	
1549,770	-67,55	
1549,772	-67,99	
1549,774	-71,70	
1549,776	-72,56	
1549,778	-71,38	
1549,780	-72,56	
1549,782	-72,56	
1549,784	-72,56	
1549,786	-72,56	
1549,788	-72,56	
1549,790	-71,24	
1549,792	-72,56	
1549,794	-72,56	
1549,796	-70,71	
1549,798	-72,56	
1549,800	-72,56	
1549,802	-72,56	
1549,804	-72,56	
1549,806	-72,56	
1549,808	-72,56	
1549,810	-70,08	
1549,812	-67,00	
1549,814	-70,16	
1549,816	-70,84	
1549,818	-72,56	
1549,820	-72,56	
1549,822	-72,56	
1549,824	-72,56	
1549,826	-70,70	
1549,828	-70,83	
1549,830	-70,35	
1549,832	-69,31	
1549,834	-72,56	
1549,836	-68,54	
1549,838	-71,76	
1549,840	-69,79	
1549,842	-69,14	
1549,844	-67,05	
1549,846	-69,57	
1549,848	-68,51	
1549,850	-67,24	
1549,852	-70,77	
1549,854	-70,14	
1549,856	-70,02	
1549,858	-72,56	
1549,860	-72,56	
1549,862	-72,56	
1549,864	-72,56	
1549,866	-72,54	
1549,868	-70,89	
1549,870	-72,56	
1549,872	-72,56	
1549,874	-72,56	
1549,876	-72,56	
1549,878	-69,79	
1549,880	-72,56	
1549,882	-69,57	
1549,884	-67,34	
1549,886	-68,94	
1549,888	-68,88	
1549,890	-67,99	
1549,892	-68,81	
1549,894	-72,56	
1549,896	-67,57	
1549,898	-68,36	
1549,900	-72,28	
1549,902	-69,47	
1549,904	-72,56	
1549,906	-71,84	
1549,908	-72,56	
1549,910	-72,56	
1549,912	-72,56	
1549,914	-72,56	
1549,916	-72,56	
1549,918	-72,30	
1549,920	-68,33	
1549,922	-72,56	
1549,924	-70,19	
1549,926	-72,56	
1549,928	-72,37	
1549,930	-68,88	
1549,932	-70,72	
1549,934	-72,56	
1549,936	-72,56	
1549,938	-72,56	
1549,940	-71,54	
1549,942	-70,02	
1549,944	-72,56	
1549,946	-72,56	
1549,948	-72,56	
1549,950	-72,56	
1549,952	-72,35	
1549,954	-72,56	
1549,956	-72,56	
1549,958	-72,56	
1549,960	-72,56	
1549,962	-71,01	
1549,964	-69,78	
1549,966	-71,52	
1549,968	-72,56	
1549,970	-72,56	
1549,972	-71,64	
1549,974	-72,56	
1549,976	-72,56	
1549,978	-72,56	
1549,980	-71,26	
1549,982	-68,67	
1549,984	-72,56	
1549,986	-72,56	
1549,988	-67,47	
1549,990	-69,60	
1549,992	-69,54	
1549,994	-67,72	
1549,996	-72,56	
1549,998	-72,56	
1550,000	-72,56	
1550,002	-72,56	
1550,004	-71,24	
1550,006	-72,50	
1550,008	-71,45	
1550,010	-72,56	
1550,012	-70,09	
1550,014	-71,39	
1550,016	-69,79	
1550,018	-70,43	
1550,020	-72,56	
1550,022	-72,56	
1550,024	-72,56	
1550,026	-72,56	
1550,028	-72,56	
1550,030	-72,56	
1550,032	-72,56	
1550,034	-67,13	
1550,036	-69,38	
1550,038	-69,86	
1550,040	-66,76	
1550,042	-72,56	
1550,044	-67,37	
1550,046	-67,95	
1550,048	-69,94	
1550,050	-72,56	
1550,052	-72,56	
1550,054	-72,56	
1550,056	-72,56	
1550,058	-72,56	
1550,060	-72,56	
1550,062	-70,76	
1550,064	-72,56	
1550,066	-72,56	
1550,068	-72,56	
1550,070	-72,56	
1550,072	-72,56	
1550,074	-68,46	
1550,076	-72,56	
1550,078	-71,52	
1550,080	-67,67	
1550,082	-72,56	
1550,084	-72,56	
1550,086	-72,56	
1550,088	-72,56	
1550,090	-72,56	
1550,092	-71,56	
1550,094	-72,56	
1550,096	-72,56	
1550,098	-72,56	
1550,100	-72,56	
1550,102	-72,56	
1550,104	-69,22	
1550,106	-67,23	
1550,108	-72,56	
1550,110	-68,38	
1550,112	-68,97	
1550,114	-72,56	
1550,116	-72,56	
1550,118	-72,56	
1550,120	-71,36	
1550,122	-70,50	
1550,124	-72,56	
1550,126	-72,56	
1550,128	-71,50	
1550,130	-72,56	
1550,132	-72,56	
1550,134	-72,56	
1550,136	-72,56	
1550,138	-72,56	
1550,140	-72,56	
1550,142	-72,56	
1550,144	-69,67	
1550,146	-67,93	
1550,148	-68,05	
1550,150	-70,42	
1550,152	-72,56	
1550,154	-72,56	
1550,156	-71,25	
1550,158	-68,79	
1550,160	-72,37	
1550,162	-72,56	
1550,164	-72,56	
1550,166	-72,38	
1550,168	-72,56	
1550,170	-72,56	
1550,172	-70,74	
1550,174	-72,56	
1550,176	-72,56	
1550,178	-72,56	
1550,180	-72,56	
1550,182	-72,56	
1550,184	-72,56	
1550,186	-71,81	
1550,188	-69,86	
1550,190	-72,07	
1550,192	-72,56	
1550,194	-72,56	
1550,196	-72,56	
1550,198	-69,95	
1550,200	-72,10	
1550,202	-72,56	
1550,204	-71,01	
1550,206	-72,03	
1550,208	-72,56	
1550,210	-72,56	
1550,212	-70,55	
1550,214	-70,61	
1550,216	-72,56	
1550,218	-72,56	
1550,220	-72,56	
1550,222	-72,56	
1550,224	-72,56	
1550,226	-72,56	
1550,228	-72,56	
1550,230	-71,88	
1550,232	-71,10	
1550,234	-71,24	
1550,236	-72,56	
1550,238	-72,56	
1550,240	-72,56	
1550,242	-71,60	
1550,244	-71,53	
1550,246	-67,79	
1550,248	-72,56	
1550,250	-72,56	
1550,252	-72,56	
1550,254	-71,71	
1550,256	-72,41	
1550,258	-72,56	
1550,260	-69,84	
1550,262	-72,07	
1550,264	-72,56	
1550,266	-72,38	
1550,268	-72,56	
1550,270	-72,56	
1550,272	-72,56	
1550,274	-68,39	
1550,276	-72,08	
1550,278	-72,36	
1550,280	-71,05	
1550,282	-72,56	
1550,284	-69,87	
1550,286	-66,96	
1550,288	-72,31	
1550,290	-72,56	
1550,292	-72,56	
1550,294	-71,24	
1550,296	-72,56	
1550,298	-69,81	
1550,300	-68,78	
1550,302	-72,56	
1550,304	-72,56	
1550,306	-70,63	
1550,308	-70,22	
1550,310	-72,56	
1550,312	-72,56	
1550,314	-71,96	
1550,316	-72,09	
1550,318	-72,56	
1550,320	-71,40	
1550,322	-71,91	
1550,324	-72,56	
1550,326	-72,56	
1550,328	-72,56	
1550,330	-67,28	
1550,332	-72,56	
1550,334	-72,56	
1550,336	-70,43	
1550,338	-72,56	
1550,340	-72,56	
1550,342	-72,56	
1550,344	-72,56	
1550,346	-72,56	
1550,348	-68,56	
1550,350	-69,02	
1550,352	-70,81	
1550,354	-68,76	
1550,356	-70,47	
1550,358	-72,56	
1550,360	-72,56	
1550,362	-71,07	
1550,364	-70,15	
1550,366	-72,56	
1550,368	-72,56	
1550,370	-72,56	
1550,372	-72,56	
1550,374	-70,25	
1550,376	-67,04	
1550,378	-71,82	
1550,380	-72,56	
1550,382	-72,56	
1550,384	-72,56	
1550,386	-72,56	
1550,388	-72,56	
1550,390	-70,95	
1550,392	-72,41	
1550,394	-72,56	
1550,396	-72,56	
1550,398	-72,56	
1550,400	-72,56	
1550,402	-72,56	
1550,404	-70,90	
1550,406	-72,56	
1550,408	-72,56	
1550,410	-72,56	
1550,412	-72,56	
1550,414	-72,56	
1550,416	-72,56	
1550,418	-72,56	
1550,420	-71,13	
1550,422	-70,59	
1550,424	-72,56	
1550,426	-72,56	
1550,428	-71,96	
1550,430	-72,56	
1550,432	-70,05	
1550,434	-72,56	
1550,436	-68,55	
1550,438	-72,56	
1550,440	-71,41	
1550,442	-67,65	
1550,444	-70,35	
1550,446	-72,56	
1550,448	-72,56	
1550,450	-72,56	
1550,452	-72,30	
1550,454	-72,56	
1550,456	-72,56	
1550,458	-72,56	
1550,460	-72,56	
1550,462	-72,56	
1550,464	-72,56	
1550,466	-68,07	
1550,468	-71,28	
1550,470	-71,08	
1550,472	-72,56	
1550,474	-72,56	
1550,476	-68,63	
1550,478	-71,31	
1550,480	-72,56	
1550,482	-70,24	
1550,484	-68,26	
1550,486	-71,22	
1550,488	-72,56	
1550,490	-72,56	
1550,492	-72,56	
1550,494	-68,86	
1550,496	-68,95	
1550,498	-69,15	
1550,500	-72,56	
1550,502	-72,56	
1550,504	-71,42	
1550,506	-72,56	
1550,508	-69,74	
1550,510	-72,56	
1550,512	-72,56	
1550,514	-71,31	
1550,516	-72,56	
1550,518	-72,56	
1550,520	-72,56	
1550,522	-72,56	
1550,524	-71,02	
1550,526	-72,56	
1550,528	-72,56	
1550,530	-68,29	
1550,532	-72,56	
1550,534	-67,55	
1550,536	-72,56	
1550,538	-72,56	
1550,540	-72,56	
1550,542	-72,56	
1550,544	-72,56	
1550,546	-72,56	
1550,548	-72,56	
1550,550	-69,06	
1550,552	-72,56	
1550,554	-72,56	
1550,556	-72,56	
1550,558	-72,56	
1550,560	-72,56	
1550,562	-68,81	
1550,564	-68,25	
1550,566	-72,56	
1550,568	-72,56	
1550,570	-72,56	
1550,572	-72,56	
1550,574	-70,65	
1550,576	-72,56	
1550,578	-72,56	
1550,580	-68,17	
1550,582	-69,42	
1550,584	-72,56	
1550,586	-72,56	
1550,588	-72,56	
1550,590	-71,22	
1550,592	-68,89	
1550,594	-72,56	
1550,596	-72,56	
1550,598	-72,56	
1550,600	-72,56	
1550,602	-72,56	
1550,604	-67,12	
1550,606	-70,90	
1550,608	-71,69	
1550,610	-70,96	
1550,612	-72,56	
1550,614	-72,56	
1550,616	-72,56	
1550,618	-72,15	
1550,620	-72,21	
1550,622	-72,56	
1550,624	-72,56	
1550,626	-72,56	
1550,628	-72,50	
1550,630	-67,57	
1550,632	-67,92	
1550,634	-70,68	
1550,636	-71,29	
1550,638	-72,56	
1550,640	-72,56	
1550,642	-72,56	
1550,644	-72,56	
1550,646	-72,56	
1550,648	-72,56	
1550,650	-68,30	
1550,652	-68,57	
1550,654	-72,15	
1550,656	-72,56	
1550,658	-72,56	
1550,660	-72,56	
1550,662	-72,56	
1550,664	-72,56	
1550,666	-72,56	
1550,668	-72,56	
1550,670	-72,56	
1550,672	-72,56	
1550,674	-72,56	
1550,676	-72,56	
1550,678	-72,56	
1550,680	-72,56	
1550,682	-72,49	
1550,684	-71,95	
1550,686	-72,56	
1550,688	-72,56	
1550,690	-72,56	
1550,692	-72,56	
1550,694	-70,74	
1550,696	-72,56	
1550,698	-69,80	
1550,700	-72,56	
1550,702	-67,69	
1550,704	-72,56	
1550,706	-72,56	
1550,708	-72,34	
1550,710	-72,56	
1550,712	-72,56	
1550,714	-72,56	
1550,716	-72,56	
1550,718	-72,56	
1550,720	-67,40	
1550,722	-72,35	
1550,724	-68,53	
1550,726	-70,16	
1550,728	-72,56	
1550,730	-72,56	
1550,732	-72,56	
1550,734	-72,56	
1550,736	-71,23	
1550,738	-71,41	
1550,740	-72,56	
1550,742	-72,56	
1550,744	-72,56	
1550,746	-72,56	
1550,748	-71,83	
1550,750	-65,89	
1550,752	-72,56	
1550,754	-72,56	
1550,756	-72,56	
1550,758	-71,94	
1550,760	-72,56	
1550,762	-71,18	
1550,764	-69,84	
1550,766	-72,56	
1550,768	-71,79	
1550,770	-68,73	
1550,772	-72,56	
1550,774	-64,50	
1550,776	-68,29	
1550,778	-72,56	
1550,780	-72,56	
1550,782	-72,56	
1550,784	-72,56	
1550,786	-72,56	
1550,788	-72,56	
1550,790	-72,56	
1550,792	-72,56	
1550,794	-67,70	
1550,796	-72,56	
1550,798	-72,56	
1550,800	-72,56	
1550,802	-72,56	
1550,804	-72,45	
1550,806	-72,20	
1550,808	-72,56	
1550,810	-72,56	
1550,812	-70,63	
1550,814	-72,56	
1550,816	-69,18	
1550,818	-71,36	
1550,820	-71,30	
1550,822	-70,07	
1550,824	-72,27	
1550,826	-72,56	
1550,828	-72,56	
1550,830	-68,80	
1550,832	-72,56	
1550,834	-68,59	
1550,836	-72,27	
1550,838	-72,56	
1550,840	-72,56	
1550,842	-70,91	
1550,844	-72,56	
1550,846	-70,39	
1550,848	-66,20	
1550,850	-67,87	
1550,852	-70,34	
1550,854	-67,68	
1550,856	-66,83	
1550,858	-72,56	
1550,860	-72,56	
1550,862	-71,92	
1550,864	-72,56	
1550,866	-72,56	
1550,868	-72,56	
1550,870	-72,56	
1550,872	-72,56	
1550,874	-69,39	
1550,876	-72,56	
1550,878	-69,45	
1550,880	-72,56	
1550,882	-72,56	
1550,884	-72,56	
1550,886	-70,21	
1550,888	-68,45	
1550,890	-70,84	
1550,892	-72,56	
1550,894	-72,56	
1550,896	-72,56	
1550,898	-72,56	
1550,900	-69,75	
1550,902	-72,56	
1550,904	-68,08	
1550,906	-68,36	
1550,908	-72,16	
1550,910	-72,56	
1550,912	-72,56	
1550,914	-70,70	
1550,916	-72,56	
1550,918	-70,46	
1550,920	-71,27	
1550,922	-71,86	
1550,924	-72,56	
1550,926	-69,40	
1550,928	-71,85	
1550,930	-72,56	
1550,932	-72,56	
1550,934	-72,56	
1550,936	-72,56	
1550,938	-67,77	
1550,940	-72,56	
1550,942	-72,56	
1550,944	-70,38	
1550,946	-72,56	
1550,948	-70,96	
1550,950	-72,56	
1550,952	-72,56	
1550,954	-72,56	
1550,956	-71,82	
1550,958	-71,45	
1550,960	-72,56	
1550,962	-68,67	
1550,964	-68,41	
1550,966	-71,05	
1550,968	-70,13	
1550,970	-68,54	
1550,972	-69,81	
1550,974	-72,56	
1550,976	-72,56	
1550,978	-72,56	
1550,980	-71,58	
1550,982	-69,08	
1550,984	-70,16	
1550,986	-71,41	
1550,988	-72,56	
1550,990	-71,62	
1550,992	-71,14	
1550,994	-72,56	
1550,996	-68,09	
1550,998	-69,83	
1551,000	-72,56	
1551,002	-71,91	
1551,004	-72,56	
1551,006	-71,96	
1551,008	-68,32	
1551,010	-66,50	
1551,012	-67,15	
1551,014	-67,91	
1551,016	-66,20	
1551,018	-68,83	
1551,020	-66,70	
1551,022	-68,69	
1551,024	-72,56	
1551,026	-70,77	
1551,028	-72,56	
1551,030	-72,56	
1551,032	-69,55	
1551,034	-67,92	
1551,036	-69,83	
1551,038	-72,56	
1551,040	-72,56	
1551,042	-72,56	
1551,044	-72,56	
1551,046	-72,56	
1551,048	-72,56	
1551,050	-68,27	
1551,052	-70,26	
1551,054	-72,56	
1551,056	-72,56	
1551,058	-69,87	
1551,060	-72,04	
1551,062	-72,56	
1551,064	-72,56	
1551,066	-72,56	
1551,068	-72,56	
1551,070	-72,56	
1551,072	-68,74	
1551,074	-72,56	
1551,076	-72,56	
1551,078	-69,31	
1551,080	-69,69	
1551,082	-70,04	
1551,084	-70,73	
1551,086	-72,56	
1551,088	-72,56	
1551,090	-70,86	
1551,092	-68,40	
1551,094	-69,90	
1551,096	-67,16	
1551,098	-72,56	
1551,100	-72,56	
1551,102	-72,43	
1551,104	-71,99	
1551,106	-71,65	
1551,108	-72,56	
1551,110	-72,56	
1551,112	-71,70	
1551,114	-70,40	
1551,116	-71,19	
1551,118	-72,56	
1551,120	-67,11	
1551,122	-70,02	
1551,124	-71,09	
1551,126	-69,07	
1551,128	-72,56	
1551,130	-72,56	
1551,132	-72,56	
1551,134	-69,53	
1551,136	-68,47	
1551,138	-72,56	
1551,140	-72,56	
1551,142	-66,82	
1551,144	-69,43	
1551,146	-72,56	
1551,148	-72,56	
1551,150	-71,32	
1551,152	-70,32	
1551,154	-71,33	
1551,156	-72,56	
1551,158	-69,14	
1551,160	-69,86	
1551,162	-72,56	
1551,164	-69,93	
1551,166	-72,56	
1551,168	-72,56	
1551,170	-72,56	
1551,172	-72,56	
1551,174	-72,56	
1551,176	-72,56	
1551,178	-72,56	
1551,180	-70,47	
1551,182	-67,24	
1551,184	-68,73	
1551,186	-67,88	
1551,188	-67,44	
1551,190	-66,86	
1551,192	-70,69	
1551,194	-72,56	
1551,196	-72,56	
1551,198	-72,56	
1551,200	-71,80	
1551,202	-71,75	
1551,204	-72,56	
1551,206	-72,56	
1551,208	-72,56	
1551,210	-70,27	
1551,212	-69,96	
1551,214	-69,07	
1551,216	-72,56	
1551,218	-71,27	
1551,220	-71,37	
1551,222	-72,56	
1551,224	-72,56	
1551,226	-72,56	
1551,228	-68,05	
1551,230	-69,59	
1551,232	-68,70	
1551,234	-69,67	
1551,236	-72,56	
1551,238	-68,73	
1551,240	-72,56	
1551,242	-67,29	
1551,244	-72,56	
1551,246	-69,76	
1551,248	-68,37	
1551,250	-69,81	
1551,252	-72,56	
1551,254	-72,56	
1551,256	-72,56	
1551,258	-72,56	
1551,260	-72,56	
1551,262	-72,56	
1551,264	-72,56	
1551,266	-72,56	
1551,268	-68,18	
1551,270	-72,52	
1551,272	-67,27	
1551,274	-72,56	
1551,276	-72,01	
1551,278	-72,56	
1551,280	-68,96	
1551,282	-70,11	
1551,284	-72,56	
1551,286	-72,56	
1551,288	-72,56	
1551,290	-72,56	
1551,292	-72,56	
1551,294	-72,56	
1551,296	-72,56	
1551,298	-72,56	
1551,300	-72,56	
1551,302	-72,56	
1551,304	-69,26	
1551,306	-72,56	
1551,308	-71,70	
1551,310	-72,56	
1551,312	-71,26	
1551,314	-72,56	
1551,316	-68,95	
1551,318	-69,77	
1551,320	-67,87	
1551,322	-69,31	
1551,324	-68,11	
1551,326	-72,56	
1551,328	-72,56	
1551,330	-72,56	
1551,332	-71,73	
1551,334	-70,78	
1551,336	-71,22	
1551,338	-72,56	
1551,340	-72,56	
1551,342	-72,56	
1551,344	-68,23	
1551,346	-67,39	
1551,348	-67,35	
1551,350	-72,56	
1551,352	-65,48	
1551,354	-69,72	
1551,356	-71,17	
1551,358	-72,56	
1551,360	-72,56	
1551,362	-72,56	
1551,364	-72,48	
1551,366	-71,26	
1551,368	-69,71	
1551,370	-72,56	
1551,372	-72,56	
1551,374	-72,56	
1551,376	-72,56	
1551,378	-72,56	
1551,380	-72,56	
1551,382	-70,68	
1551,384	-71,46	
1551,386	-72,56	
1551,388	-72,56	
1551,390	-71,44	
1551,392	-69,18	
1551,394	-72,56	
1551,396	-72,56	
1551,398	-71,02	
1551,400	-72,56	
1551,402	-65,92	
1551,404	-71,29	
1551,406	-72,56	
1551,408	-72,56	
1551,410	-72,56	
1551,412	-72,56	
1551,414	-72,56	
1551,416	-72,56	
1551,418	-72,56	
1551,420	-72,56	
1551,422	-71,27	
1551,424	-67,93	
1551,426	-67,82	
1551,428	-68,92	
1551,430	-69,48	
1551,432	-72,56	
1551,434	-72,56	
1551,436	-72,08	
1551,438	-71,38	
1551,440	-67,07	
1551,442	-71,41	
1551,444	-72,56	
1551,446	-68,96	
1551,448	-72,56	
1551,450	-72,56	
1551,452	-70,44	
1551,454	-72,56	
1551,456	-72,56	
1551,458	-71,59	
1551,460	-71,62	
1551,462	-72,56	
1551,464	-72,56	
1551,466	-72,56	
1551,468	-72,56	
1551,470	-71,85	
1551,472	-72,56	
1551,474	-72,56	
1551,476	-72,56	
1551,478	-69,44	
1551,480	-68,63	
1551,482	-72,56	
1551,484	-72,56	
1551,486	-72,56	
1551,488	-72,56	
1551,490	-72,56	
1551,492	-72,56	
1551,494	-72,56	
1551,496	-69,05	
1551,498	-72,56	
1551,500	-70,89	
1551,502	-72,56	
1551,504	-69,80	
1551,506	-72,56	
1551,508	-72,56	
1551,510	-72,56	
1551,512	-70,01	
1551,514	-71,97	
1551,516	-69,10	
1551,518	-69,81	
1551,520	-72,36	
1551,522	-69,39	
1551,524	-68,06	
1551,526	-67,38	
1551,528	-71,91	
1551,530	-72,56	
1551,532	-72,56	
1551,534	-72,56	
1551,536	-72,56	
1551,538	-71,43	
1551,540	-72,56	
1551,542	-71,95	
1551,544	-67,45	
1551,546	-72,56	
1551,548	-72,28	
1551,550	-72,56	
1551,552	-72,56	
1551,554	-68,55	
1551,556	-72,10	
1551,558	-72,56	
1551,560	-66,68	
1551,562	-70,85	
1551,564	-69,64	
1551,566	-70,30	
1551,568	-72,56	
1551,570	-72,56	
1551,572	-69,80	
1551,574	-67,55	
1551,576	-69,65	
1551,578	-68,69	
1551,580	-70,45	
1551,582	-70,72	
1551,584	-72,01	
1551,586	-72,56	
1551,588	-72,56	
1551,590	-72,56	
1551,592	-72,56	
1551,594	-72,56	
1551,596	-72,56	
1551,598	-71,35	
1551,600	-72,56	
1551,602	-72,56	
1551,604	-72,56	
1551,606	-71,66	
1551,608	-72,50	
1551,610	-69,12	
1551,612	-72,56	
1551,614	-69,98	
1551,616	-68,75	
1551,618	-72,56	
1551,620	-72,56	
1551,622	-72,56	
1551,624	-72,56	
1551,626	-72,56	
1551,628	-72,56	
1551,630	-71,22	
1551,632	-72,56	
1551,634	-67,77	
1551,636	-66,12	
1551,638	-72,56	
1551,640	-72,56	
1551,642	-71,77	
1551,644	-72,56	
1551,646	-72,56	
1551,648	-72,56	
1551,650	-72,56	
1551,652	-72,56	
1551,654	-72,56	
1551,656	-71,64	
1551,658	-68,81	
1551,660	-69,57	
1551,662	-72,56	
1551,664	-72,56	
1551,666	-70,08	
1551,668	-72,17	
1551,670	-72,56	
1551,672	-68,75	
1551,674	-71,01	
1551,676	-72,56	
1551,678	-72,56	
1551,680	-72,56	
1551,682	-70,38	
1551,684	-72,56	
1551,686	-72,56	
1551,688	-72,56	
1551,690	-72,56	
1551,692	-72,43	
1551,694	-71,04	
1551,696	-72,56	
1551,698	-72,56	
1551,700	-70,78	
1551,702	-72,56	
1551,704	-72,56	
1551,706	-72,56	
1551,708	-72,56	
1551,710	-72,56	
1551,712	-70,36	
1551,714	-72,56	
1551,716	-72,56	
1551,718	-71,63	
1551,720	-71,06	
1551,722	-72,56	
1551,724	-72,56	
1551,726	-72,56	
1551,728	-72,56	
1551,730	-72,56	
1551,732	-72,56	
1551,734	-72,56	
1551,736	-72,56	
1551,738	-72,56	
1551,740	-72,56	
1551,742	-72,56	
1551,744	-72,56	
1551,746	-71,41	
1551,748	-71,43	
1551,750	-72,56	
1551,752	-72,56	
1551,754	-72,56	
1551,756	-72,56	
1551,758	-72,56	
1551,760	-72,56	
1551,762	-71,42	
1551,764	-69,57	
1551,766	-71,74	
1551,768	-72,56	
1551,770	-72,56	
1551,772	-72,56	
1551,774	-72,56	
1551,776	-72,56	
1551,778	-72,56	
1551,780	-70,57	
1551,782	-71,51	
1551,784	-72,56	
1551,786	-72,56	
1551,788	-72,56	
1551,790	-66,53	
1551,792	-69,37	
1551,794	-68,61	
1551,796	-67,55	
1551,798	-71,63	
1551,800	-72,56	
1551,802	-72,56	
1551,804	-72,56	
1551,806	-72,56	
1551,808	-70,79	
1551,810	-70,01	
1551,812	-70,56	
1551,814	-72,56	
1551,816	-70,85	
1551,818	-71,43	
1551,820	-70,96	
1551,822	-72,56	
1551,824	-68,64	
1551,826	-67,44	
1551,828	-72,56	
1551,830	-72,56	
1551,832	-71,84	
1551,834	-68,95	
1551,836	-72,56	
1551,838	-72,56	
1551,840	-72,56	
1551,842	-72,56	
1551,844	-71,41	
1551,846	-72,56	
1551,848	-72,56	
1551,850	-67,96	
1551,852	-72,56	
1551,854	-70,39	
1551,856	-72,56	
1551,858	-72,56	
1551,860	-72,20	
1551,862	-72,56	
1551,864	-72,56	
1551,866	-72,56	
1551,868	-72,22	
1551,870	-72,56	
1551,872	-72,56	
1551,874	-72,56	
1551,876	-71,79	
1551,878	-72,56	
1551,880	-70,16	
1551,882	-69,33	
1551,884	-70,33	
1551,886	-68,81	
1551,888	-68,48	
1551,890	-70,46	
1551,892	-72,56	
1551,894	-72,56	
1551,896	-72,56	
1551,898	-72,56	
1551,900	-72,56	
1551,902	-72,56	
1551,904	-72,56	
1551,906	-72,56	
1551,908	-72,56	
1551,910	-69,98	
1551,912	-67,26	
1551,914	-72,56	
1551,916	-72,56	
1551,918	-72,56	
1551,920	-72,56	
1551,922	-72,56	
1551,924	-72,56	
1551,926	-72,49	
1551,928	-72,56	
1551,930	-67,14	
1551,932	-69,55	
1551,934	-71,86	
1551,936	-72,56	
1551,938	-72,56	
1551,940	-70,63	
1551,942	-68,26	
1551,944	-68,25	
1551,946	-71,50	
1551,948	-72,56	
1551,950	-72,56	
1551,952	-72,56	
1551,954	-72,56	
1551,956	-72,56	
1551,958	-72,56	
1551,960	-72,56	
1551,962	-72,56	
1551,964	-71,89	
1551,966	-72,56	
1551,968	-66,37	
1551,970	-72,56	
1551,972	-71,08	
1551,974	-72,56	
1551,976	-72,56	
1551,978	-71,13	
1551,980	-72,21	
1551,982	-72,56	
1551,984	-72,56	
1551,986	-72,56	
1551,988	-70,22	
1551,990	-70,90	
1551,992	-72,56	
1551,994	-72,56	
1551,996	-68,64	
1551,998	-68,88	
1552,000	-72,56	
1552,002	-72,56	
1552,004	-72,56	
1552,006	-72,56	
1552,008	-72,56	
1552,010	-70,34	
1552,012	-70,67	
1552,014	-72,56	
1552,016	-72,56	
1552,018	-71,33	
1552,020	-71,07	
1552,022	-68,83	
1552,024	-66,85	
1552,026	-67,54	
1552,028	-69,46	
1552,030	-69,37	
1552,032	-70,69	
1552,034	-72,56	
1552,036	-72,56	
1552,038	-72,56	
1552,040	-72,56	
1552,042	-72,56	
1552,044	-72,56	
1552,046	-72,56	
1552,048	-68,87	
1552,050	-69,04	
1552,052	-69,49	
1552,054	-66,41	
1552,056	-68,05	
1552,058	-69,50	
1552,060	-72,56	
1552,062	-72,56	
1552,064	-68,74	
1552,066	-70,05	
1552,068	-72,56	
1552,070	-72,56	
1552,072	-72,56	
1552,074	-72,56	
1552,076	-72,56	
1552,078	-72,56	
1552,080	-69,97	
1552,082	-71,84	
1552,084	-72,56	
1552,086	-72,56	
1552,088	-72,56	
1552,090	-72,56	
1552,092	-71,13	
1552,094	-72,31	
1552,096	-71,35	
1552,098	-68,65	
1552,100	-72,56	
1552,102	-72,56	
1552,104	-72,56	
1552,106	-72,56	
1552,108	-72,56	
1552,110	-69,87	
1552,112	-72,56	
1552,114	-72,56	
1552,116	-72,56	
1552,118	-72,56	
1552,120	-72,56	
1552,122	-72,56	
1552,124	-72,56	
1552,126	-72,56	
1552,128	-71,22	
1552,130	-68,73	
1552,132	-69,05	
1552,134	-72,32	
1552,136	-66,90	
1552,138	-72,37	
1552,140	-72,56	
1552,142	-72,56	
1552,144	-71,89	
1552,146	-72,34	
1552,148	-72,56	
1552,150	-72,56	
1552,152	-72,56	
1552,154	-72,56	
1552,156	-71,44	
1552,158	-72,56	
1552,160	-72,56	
1552,162	-72,56	
1552,164	-72,56	
1552,166	-71,21	
1552,168	-68,56	
1552,170	-70,88	
1552,172	-72,37	
1552,174	-72,56	
1552,176	-72,56	
1552,178	-72,56	
1552,180	-72,56	
1552,182	-72,56	
1552,184	-72,56	
1552,186	-72,56	
1552,188	-67,77	
1552,190	-66,78	
1552,192	-69,39	
1552,194	-72,56	
1552,196	-72,56	
1552,198	-72,56	
1552,200	-72,56	
1552,202	-72,56	
1552,204	-72,56	
1552,206	-72,56	
1552,208	-71,70	
1552,210	-72,56	
1552,212	-72,56	
1552,214	-72,56	
1552,216	-69,04	
1552,218	-72,36	
1552,220	-70,29	
1552,222	-71,40	
1552,224	-71,13	
1552,226	-69,82	
1552,228	-69,50	
1552,230	-71,29	
1552,232	-72,56	
1552,234	-72,34	
1552,236	-71,14	
1552,238	-72,56	
1552,240	-72,56	
1552,242	-72,56	
1552,244	-71,87	
1552,246	-70,43	
1552,248	-72,00	
1552,250	-70,01	
1552,252	-71,08	
1552,254	-72,56	
1552,256	-72,56	
1552,258	-72,56	
1552,260	-71,91	
1552,262	-68,23	
1552,264	-72,56	
1552,266	-72,56	
1552,268	-72,56	
1552,270	-68,76	
1552,272	-70,93	
1552,274	-72,56	
1552,276	-72,31	
1552,278	-72,56	
1552,280	-72,56	
1552,282	-72,56	
1552,284	-72,56	
1552,286	-72,56	
1552,288	-72,56	
1552,290	-72,56	
1552,292	-72,56	
1552,294	-72,56	
1552,296	-72,56	
1552,298	-72,56	
1552,300	-69,76	
1552,302	-72,56	
1552,304	-72,31	
1552,306	-67,92	
1552,308	-67,30	
1552,310	-67,33	
1552,312	-68,61	
1552,314	-68,80	
1552,316	-69,31	
1552,318	-72,56	
1552,320	-72,56	
1552,322	-72,56	
1552,324	-69,95	
1552,326	-72,56	
1552,328	-72,56	
1552,330	-72,56	
1552,332	-72,56	
1552,334	-72,56	
1552,336	-72,56	
1552,338	-70,12	
1552,340	-71,02	
1552,342	-68,61	
1552,344	-72,56	
1552,346	-72,56	
1552,348	-72,56	
1552,350	-70,35	
1552,352	-72,56	
1552,354	-72,56	
1552,356	-72,56	
1552,358	-72,56	
1552,360	-71,14	
1552,362	-72,56	
1552,364	-70,23	
1552,366	-70,18	
1552,368	-69,18	
1552,370	-68,86	
1552,372	-72,56	
1552,374	-70,23	
1552,376	-70,90	
1552,378	-68,52	
1552,380	-72,56	
1552,382	-72,56	
1552,384	-71,15	
1552,386	-72,56	
1552,388	-69,63	
1552,390	-72,31	
1552,392	-72,56	
1552,394	-72,56	
1552,396	-72,56	
1552,398	-72,56	
1552,400	-72,56	
1552,402	-72,10	
1552,404	-72,56	
1552,406	-72,56	
1552,408	-72,56	
1552,410	-72,56	
1552,412	-71,74	
1552,414	-72,56	
1552,416	-68,81	
1552,418	-67,71	
1552,420	-69,84	
1552,422	-70,56	
1552,424	-72,56	
1552,426	-72,56	
1552,428	-72,56	
1552,430	-72,56	
1552,432	-72,56	
1552,434	-72,56	
1552,436	-72,56	
1552,438	-72,56	
1552,440	-72,56	
1552,442	-70,67	
1552,444	-72,56	
1552,446	-72,56	
1552,448	-72,56	
1552,450	-72,56	
1552,452	-72,56	
1552,454	-71,32	
1552,456	-72,56	
1552,458	-66,79	
1552,460	-67,26	
1552,462	-68,31	
1552,464	-70,99	
1552,466	-72,53	
1552,468	-72,56	
1552,470	-72,56	
1552,472	-68,33	
1552,474	-68,15	
1552,476	-70,90	
1552,478	-72,56	
1552,480	-72,56	
1552,482	-72,56	
1552,484	-72,56	
1552,486	-72,56	
1552,488	-72,56	
1552,490	-72,56	
1552,492	-70,99	
1552,494	-68,16	
1552,496	-69,20	
1552,498	-72,56	
1552,500	-72,56	
1552,502	-72,24	
1552,504	-71,23	
1552,506	-71,18	
1552,508	-72,56	
1552,510	-72,56	
1552,512	-70,33	
1552,514	-70,49	
1552,516	-72,56	
1552,518	-72,56	
1552,520	-72,56	
1552,522	-72,56	
1552,524	-70,51	
1552,526	-72,56	
1552,528	-71,78	
1552,530	-69,26	
1552,532	-72,56	
1552,534	-72,56	
1552,536	-67,25	
1552,538	-66,13	
1552,540	-67,77	
1552,542	-70,72	
1552,544	-72,56	
1552,546	-72,56	
1552,548	-72,56	
1552,550	-72,56	
1552,552	-72,56	
1552,554	-72,56	
1552,556	-72,56	
1552,558	-72,56	
1552,560	-69,76	
1552,562	-66,83	
1552,564	-67,28	
1552,566	-68,12	
1552,568	-72,56	
1552,570	-71,33	
1552,572	-70,12	
1552,574	-70,71	
1552,576	-72,56	
1552,578	-71,52	
1552,580	-72,56	
1552,582	-72,56	
1552,584	-72,56	
1552,586	-72,56	
1552,588	-72,56	
1552,590	-71,24	
1552,592	-72,56	
1552,594	-72,56	
1552,596	-72,56	
1552,598	-68,63	
1552,600	-72,56	
1552,602	-72,56	
1552,604	-72,30	
1552,606	-72,52	
1552,608	-71,86	
1552,610	-72,56	
1552,612	-72,56	
1552,614	-72,56	
1552,616	-72,56	
1552,618	-72,56	
1552,620	-67,69	
1552,622	-67,04	
1552,624	-72,31	
1552,626	-70,46	
1552,628	-72,56	
1552,630	-72,56	
1552,632	-72,56	
1552,634	-72,56	
1552,636	-68,68	
1552,638	-72,56	
1552,640	-72,28	
1552,642	-67,51	
1552,644	-67,02	
1552,646	-70,48	
1552,648	-69,35	
1552,650	-67,69	
1552,652	-70,75	
1552,654	-72,56	
1552,656	-72,56	
1552,658	-71,56	
1552,660	-72,56	
1552,662	-72,56	
1552,664	-72,56	
1552,666	-72,56	
1552,668	-72,56	
1552,670	-70,10	
1552,672	-72,56	
1552,674	-72,56	
1552,676	-72,56	
1552,678	-72,56	
1552,680	-72,56	
1552,682	-72,01	
1552,684	-72,56	
1552,686	-72,56	
1552,688	-66,84	
1552,690	-72,56	
1552,692	-71,63	
1552,694	-68,24	
1552,696	-68,93	
1552,698	-70,35	
1552,700	-72,56	
1552,702	-72,56	
1552,704	-72,56	
1552,706	-72,56	
1552,708	-72,56	
1552,710	-72,56	
1552,712	-66,11	
1552,714	-70,88	
1552,716	-70,43	
1552,718	-70,53	
1552,720	-68,02	
1552,722	-70,95	
1552,724	-72,34	
1552,726	-69,48	
1552,728	-72,56	
1552,730	-72,56	
1552,732	-69,11	
1552,734	-71,94	
1552,736	-72,56	
1552,738	-72,56	
1552,740	-70,16	
1552,742	-72,56	
1552,744	-72,56	
1552,746	-71,59	
1552,748	-72,56	
1552,750	-72,56	
1552,752	-72,56	
1552,754	-72,56	
1552,756	-72,56	
1552,758	-72,56	
1552,760	-72,10	
1552,762	-72,56	
1552,764	-67,73	
1552,766	-69,33	
1552,768	-72,56	
1552,770	-67,03	
1552,772	-67,07	
1552,774	-66,71	
1552,776	-67,87	
1552,778	-72,56	
1552,780	-72,56	
1552,782	-72,56	
1552,784	-72,56	
1552,786	-72,56	
1552,788	-72,56	
1552,790	-70,10	
1552,792	-71,73	
1552,794	-72,56	
1552,796	-72,51	
1552,798	-72,56	
1552,800	-72,56	
1552,802	-72,56	
1552,804	-72,56	
1552,806	-72,56	
1552,808	-72,56	
1552,810	-72,01	
1552,812	-70,59	
1552,814	-67,29	
1552,816	-68,39	
1552,818	-67,76	
1552,820	-72,56	
1552,822	-72,56	
1552,824	-72,56	
1552,826	-72,56	
1552,828	-72,56	
1552,830	-70,82	
1552,832	-68,57	
1552,834	-72,56	
1552,836	-66,98	
1552,838	-70,20	
1552,840	-72,56	
1552,842	-68,28	
1552,844	-72,46	
1552,846	-72,56	
1552,848	-72,56	
1552,850	-69,66	
1552,852	-68,92	
1552,854	-69,98	
1552,856	-72,56	
1552,858	-72,56	
1552,860	-72,15	
1552,862	-67,73	
1552,864	-69,97	
1552,866	-70,26	
1552,868	-69,58	
1552,870	-72,56	
1552,872	-71,85	
1552,874	-69,86	
1552,876	-72,56	
1552,878	-70,00	
1552,880	-72,56	
1552,882	-71,37	
1552,884	-72,56	
1552,886	-71,64	
1552,888	-69,91	
1552,890	-72,56	
1552,892	-72,56	
1552,894	-72,56	
1552,896	-72,56	
1552,898	-68,17	
1552,900	-71,26	
1552,902	-70,83	
1552,904	-72,56	
1552,906	-70,09	
1552,908	-70,45	
1552,910	-72,56	
1552,912	-72,56	
1552,914	-72,56	
1552,916	-70,05	
1552,918	-72,56	
1552,920	-68,96	
1552,922	-72,56	
1552,924	-72,56	
1552,926	-72,56	
1552,928	-72,56	
1552,930	-72,56	
1552,932	-72,56	
1552,934	-72,56	
1552,936	-72,56	
1552,938	-69,54	
1552,940	-70,78	
1552,942	-72,56	
1552,944	-72,56	
1552,946	-68,88	
1552,948	-69,10	
1552,950	-72,48	
1552,952	-69,32	
1552,954	-70,42	
1552,956	-67,16	
1552,958	-72,56	
1552,960	-72,56	
1552,962	-72,56	
1552,964	-72,51	
1552,966	-72,56	
1552,968	-72,56	
1552,970	-67,63	
1552,972	-72,56	
1552,974	-71,24	
1552,976	-72,47	
1552,978	-72,56	
1552,980	-72,56	
1552,982	-72,56	
1552,984	-72,56	
1552,986	-72,56	
1552,988	-70,96	
1552,990	-72,56	
1552,992	-72,56	
1552,994	-72,14	
1552,996	-70,66	
1552,998	-70,83	
1553,000	-68,43	


