OSA WDM Report

Results

Trace Identification

File name:  	
Job ID:  	
Cable ID:  	
Fiber ID:  	
Customer:  	
Company:  	
Operator:  	
Maintenance reason:  	
Link ID:  	530
Orientation:  	None
System:  	
Network element:  	None
Test point:  	None
Description:  	
Comments:  	

Acquisition Conditions

Acquisition type:  	Real Time
Number of scans:  	1
Spectral range start:  	1547,000 nm
Spectral range stop:  	1553,000 nm
User calibration:  	Factory
Calibration date:  	2017-12-22
Acquisition start time:  	2025-10-01 15:20:48
Acquisition stop time:  	2025-10-01 15:20:51
Hardware model:  	FTBx-5245-EA
Serial number:  	1085217
RBW value:  	0,041 nm

Global Results

Average signal power:  	-21,63 dBm
Signal power flatness:  	---
Average OSNR:  	39,21 dB
OSNR flatness:  	---
Total power in scan range:  	-21,62 dBm
Channel count:  	1
Empty channel count:  	0

Global Test Result

Status:  	Not Active

Channel Results

Ch.#	Name	λ (nm)	Δλ (nm)	λ Peak (nm)	∆λ Peak (nm)	Signal Power (dBm)	OSNR (dB)	NoisedBm	Bandwidth 3,00 dB (nm)	Bandwidth 20,00 dB (nm)	ENBW (nm)	Transmitter Trace	Warning	
1	C_001	1549,231	-0,001	1549,229	-0,003	(i) -21,63	39,21	(IEC) -60,84	0,036	0,104	0,041	---	---	


Analysis Parameters

Default Channel Analysis

Activate default channel:  	ON
Snap to ITU grid:  	OFF
Channel width:  	20,000 nm
Signal power calculation:  	Integrated signal power
Noise for OSNR:  	Fixed range IEC based
OSNR distance:  	10,000 nm
Noise region:  	0,080 nm

Default Channel Thresholds

Signal power min.:  	-45,00 dBm
Signal power max.:  	15,00 dBm
Noise min.:  	-99,99 dBm
Noise max.:  	-40,00 dBm
OSNR min.:  	5,00 dB
OSNR max.:  	60,00 dB
Wavelength max. dev. ±:  	0,020 nm

Global Analysis

Peak detection level:  	-29,00 dBm
RBW for OSNR:  	0,400 nm
Wavelength offset:  	0,000 nm
Power offset:  	0,00 dB
Bandwidth at:  	20,00 dB

Global Thresholds

Average signal power min.:  	-45,00 dBm
Average signal power max.:  	15,00 dBm
Signal power flatness max.:  	1,00 dB
Average OSNR min.:  	5,00 dB
Average OSNR max.:  	60,00 dB
OSNR flatness max.:  	10,00 dB

Channel List

Name	λ (nm)	Channel Width	Signal Power	Noise for OSNR	Transmitter Trace	OSNR Distance	Noise Region	Signal Power Min. (dBm)	Signal Power Max. (dBm)	Noise Min. (dBm)	Noise Max. (dBm)	OSNR Min. (dB)	OSNR Max. (dB)	Wavelength Max. Dev. (nm)	
C_001	1549,232	20,000 nm	Integrated signal power	Fixed range IEC based	---	10,000 nm	0,080 nm	-45,00	15,00	-99,99	-40,00	5,00	60,00	0,020	

Graph

λ (nm)	Power (dBm)	
1547,000	-70,71	
1547,002	-72,56	
1547,004	-70,72	
1547,006	-72,56	
1547,008	-72,56	
1547,010	-68,69	
1547,012	-69,92	
1547,014	-72,56	
1547,016	-72,56	
1547,018	-71,04	
1547,020	-66,59	
1547,022	-65,98	
1547,024	-69,37	
1547,026	-72,56	
1547,028	-71,51	
1547,030	-68,92	
1547,032	-72,56	
1547,034	-68,46	
1547,036	-72,56	
1547,038	-69,33	
1547,040	-70,58	
1547,042	-68,93	
1547,044	-71,08	
1547,046	-72,56	
1547,048	-68,89	
1547,050	-70,43	
1547,052	-72,56	
1547,054	-70,15	
1547,056	-71,25	
1547,058	-71,17	
1547,060	-70,81	
1547,062	-72,56	
1547,064	-72,56	
1547,066	-72,56	
1547,068	-72,56	
1547,070	-72,56	
1547,072	-71,35	
1547,074	-72,56	
1547,076	-72,56	
1547,078	-65,47	
1547,080	-72,56	
1547,082	-66,94	
1547,084	-68,80	
1547,086	-72,56	
1547,088	-69,84	
1547,090	-72,02	
1547,092	-72,56	
1547,094	-72,56	
1547,096	-72,56	
1547,098	-72,38	
1547,100	-69,77	
1547,102	-70,80	
1547,104	-68,58	
1547,106	-66,00	
1547,108	-68,86	
1547,110	-72,56	
1547,112	-69,17	
1547,114	-72,04	
1547,116	-72,56	
1547,118	-70,41	
1547,120	-72,27	
1547,122	-72,56	
1547,124	-72,56	
1547,126	-72,56	
1547,128	-70,66	
1547,130	-72,56	
1547,132	-72,56	
1547,134	-72,56	
1547,136	-72,28	
1547,138	-70,21	
1547,140	-67,78	
1547,142	-70,26	
1547,144	-72,56	
1547,146	-72,56	
1547,148	-72,56	
1547,150	-71,80	
1547,152	-72,14	
1547,154	-72,24	
1547,156	-66,47	
1547,158	-65,66	
1547,160	-68,10	
1547,162	-68,02	
1547,164	-68,07	
1547,166	-72,39	
1547,168	-72,56	
1547,170	-72,56	
1547,172	-72,38	
1547,174	-71,54	
1547,176	-72,56	
1547,178	-72,56	
1547,180	-72,27	
1547,182	-72,56	
1547,184	-69,17	
1547,186	-71,22	
1547,188	-72,56	
1547,190	-72,56	
1547,192	-72,56	
1547,194	-72,56	
1547,196	-72,56	
1547,198	-72,56	
1547,200	-72,56	
1547,202	-72,56	
1547,204	-70,19	
1547,206	-72,56	
1547,208	-70,40	
1547,210	-72,56	
1547,212	-68,92	
1547,214	-72,56	
1547,216	-72,56	
1547,218	-72,56	
1547,220	-68,25	
1547,222	-71,29	
1547,224	-72,56	
1547,226	-72,22	
1547,228	-71,11	
1547,230	-72,05	
1547,232	-70,26	
1547,234	-72,56	
1547,236	-72,56	
1547,238	-71,81	
1547,240	-72,56	
1547,242	-72,21	
1547,244	-72,22	
1547,246	-67,77	
1547,248	-70,75	
1547,250	-70,01	
1547,252	-72,48	
1547,254	-72,56	
1547,256	-72,56	
1547,258	-72,56	
1547,260	-72,56	
1547,262	-67,77	
1547,264	-70,97	
1547,266	-69,44	
1547,268	-72,56	
1547,270	-72,56	
1547,272	-72,56	
1547,274	-72,56	
1547,276	-72,56	
1547,278	-72,56	
1547,280	-72,56	
1547,282	-72,56	
1547,284	-72,22	
1547,286	-68,57	
1547,288	-70,76	
1547,290	-72,56	
1547,292	-72,56	
1547,294	-72,56	
1547,296	-72,56	
1547,298	-71,32	
1547,300	-68,59	
1547,302	-70,63	
1547,304	-72,56	
1547,306	-72,53	
1547,308	-72,56	
1547,310	-72,56	
1547,312	-72,56	
1547,314	-72,56	
1547,316	-72,56	
1547,318	-69,08	
1547,320	-71,03	
1547,322	-72,56	
1547,324	-72,56	
1547,326	-72,56	
1547,328	-72,36	
1547,330	-72,56	
1547,332	-72,56	
1547,334	-72,56	
1547,336	-71,58	
1547,338	-72,56	
1547,340	-72,56	
1547,342	-72,56	
1547,344	-72,56	
1547,346	-72,56	
1547,348	-68,39	
1547,350	-72,56	
1547,352	-72,56	
1547,354	-72,56	
1547,356	-72,56	
1547,358	-72,15	
1547,360	-70,28	
1547,362	-71,89	
1547,364	-72,56	
1547,366	-72,56	
1547,368	-72,56	
1547,370	-70,96	
1547,372	-68,18	
1547,374	-72,56	
1547,376	-72,56	
1547,378	-72,56	
1547,380	-72,56	
1547,382	-72,56	
1547,384	-72,56	
1547,386	-72,56	
1547,388	-72,56	
1547,390	-72,56	
1547,392	-72,56	
1547,394	-72,56	
1547,396	-72,56	
1547,398	-72,56	
1547,400	-72,56	
1547,402	-72,56	
1547,404	-72,56	
1547,406	-68,02	
1547,408	-66,80	
1547,410	-71,46	
1547,412	-72,56	
1547,414	-72,56	
1547,416	-72,56	
1547,418	-72,56	
1547,420	-72,56	
1547,422	-71,78	
1547,424	-72,56	
1547,426	-72,56	
1547,428	-72,56	
1547,430	-72,56	
1547,432	-69,99	
1547,434	-72,56	
1547,436	-72,56	
1547,438	-72,56	
1547,440	-72,56	
1547,442	-72,56	
1547,444	-72,56	
1547,446	-72,56	
1547,448	-67,34	
1547,450	-72,56	
1547,452	-72,56	
1547,454	-72,56	
1547,456	-72,56	
1547,458	-72,56	
1547,460	-72,56	
1547,462	-72,56	
1547,464	-71,43	
1547,466	-72,35	
1547,468	-72,56	
1547,470	-72,56	
1547,472	-72,56	
1547,474	-69,39	
1547,476	-67,40	
1547,478	-69,44	
1547,480	-72,56	
1547,482	-72,56	
1547,484	-72,56	
1547,486	-72,56	
1547,488	-72,56	
1547,490	-72,56	
1547,492	-72,56	
1547,494	-72,56	
1547,496	-72,56	
1547,498	-72,56	
1547,500	-72,56	
1547,502	-72,56	
1547,504	-67,68	
1547,506	-68,84	
1547,508	-70,53	
1547,510	-72,56	
1547,512	-72,56	
1547,514	-72,56	
1547,516	-72,56	
1547,518	-72,23	
1547,520	-71,42	
1547,522	-72,56	
1547,524	-72,56	
1547,526	-69,95	
1547,528	-72,56	
1547,530	-72,56	
1547,532	-72,56	
1547,534	-72,56	
1547,536	-72,56	
1547,538	-69,34	
1547,540	-70,66	
1547,542	-72,56	
1547,544	-72,56	
1547,546	-72,56	
1547,548	-70,20	
1547,550	-72,56	
1547,552	-72,56	
1547,554	-72,56	
1547,556	-72,56	
1547,558	-72,56	
1547,560	-72,56	
1547,562	-69,86	
1547,564	-72,56	
1547,566	-72,25	
1547,568	-68,99	
1547,570	-69,12	
1547,572	-71,54	
1547,574	-72,56	
1547,576	-68,78	
1547,578	-66,34	
1547,580	-71,68	
1547,582	-72,47	
1547,584	-72,56	
1547,586	-72,56	
1547,588	-72,56	
1547,590	-72,56	
1547,592	-72,56	
1547,594	-72,56	
1547,596	-67,71	
1547,598	-68,09	
1547,600	-70,08	
1547,602	-72,56	
1547,604	-72,56	
1547,606	-72,56	
1547,608	-72,56	
1547,610	-72,56	
1547,612	-72,56	
1547,614	-72,56	
1547,616	-70,64	
1547,618	-72,56	
1547,620	-72,56	
1547,622	-72,32	
1547,624	-68,65	
1547,626	-72,56	
1547,628	-69,27	
1547,630	-69,40	
1547,632	-71,79	
1547,634	-72,56	
1547,636	-72,56	
1547,638	-72,56	
1547,640	-72,56	
1547,642	-69,04	
1547,644	-72,56	
1547,646	-71,63	
1547,648	-71,41	
1547,650	-72,56	
1547,652	-72,56	
1547,654	-72,56	
1547,656	-72,56	
1547,658	-72,56	
1547,660	-70,83	
1547,662	-69,03	
1547,664	-72,56	
1547,666	-72,56	
1547,668	-70,65	
1547,670	-72,56	
1547,672	-71,13	
1547,674	-72,56	
1547,676	-72,56	
1547,678	-72,56	
1547,680	-72,56	
1547,682	-72,56	
1547,684	-72,56	
1547,686	-72,56	
1547,688	-72,56	
1547,690	-72,36	
1547,692	-70,85	
1547,694	-72,56	
1547,696	-72,56	
1547,698	-68,73	
1547,700	-70,06	
1547,702	-72,56	
1547,704	-71,47	
1547,706	-72,56	
1547,708	-72,56	
1547,710	-72,56	
1547,712	-72,56	
1547,714	-72,56	
1547,716	-72,56	
1547,718	-72,56	
1547,720	-72,56	
1547,722	-72,56	
1547,724	-72,56	
1547,726	-72,56	
1547,728	-72,56	
1547,730	-72,56	
1547,732	-72,56	
1547,734	-70,44	
1547,736	-72,56	
1547,738	-72,56	
1547,740	-72,56	
1547,742	-72,56	
1547,744	-72,56	
1547,746	-72,56	
1547,748	-72,56	
1547,750	-72,56	
1547,752	-70,18	
1547,754	-68,76	
1547,756	-69,21	
1547,758	-67,44	
1547,760	-72,56	
1547,762	-72,56	
1547,764	-72,56	
1547,766	-72,56	
1547,768	-72,56	
1547,770	-72,56	
1547,772	-72,56	
1547,774	-72,56	
1547,776	-72,56	
1547,778	-72,56	
1547,780	-71,22	
1547,782	-72,56	
1547,784	-72,56	
1547,786	-72,56	
1547,788	-72,44	
1547,790	-72,56	
1547,792	-71,89	
1547,794	-72,41	
1547,796	-72,56	
1547,798	-72,56	
1547,800	-72,09	
1547,802	-72,56	
1547,804	-72,56	
1547,806	-72,56	
1547,808	-70,71	
1547,810	-70,53	
1547,812	-72,56	
1547,814	-70,07	
1547,816	-72,56	
1547,818	-72,56	
1547,820	-72,56	
1547,822	-72,56	
1547,824	-72,56	
1547,826	-72,56	
1547,828	-72,56	
1547,830	-68,48	
1547,832	-69,18	
1547,834	-70,36	
1547,836	-72,56	
1547,838	-72,56	
1547,840	-70,06	
1547,842	-71,85	
1547,844	-72,56	
1547,846	-72,56	
1547,848	-72,56	
1547,850	-72,56	
1547,852	-72,53	
1547,854	-72,56	
1547,856	-72,56	
1547,858	-72,56	
1547,860	-72,56	
1547,862	-72,56	
1547,864	-71,61	
1547,866	-72,56	
1547,868	-72,53	
1547,870	-72,56	
1547,872	-72,56	
1547,874	-72,56	
1547,876	-72,56	
1547,878	-72,56	
1547,880	-72,56	
1547,882	-72,56	
1547,884	-72,56	
1547,886	-72,56	
1547,888	-72,56	
1547,890	-72,56	
1547,892	-72,56	
1547,894	-72,56	
1547,896	-72,56	
1547,898	-72,56	
1547,900	-72,56	
1547,902	-69,12	
1547,904	-72,47	
1547,906	-72,56	
1547,908	-70,48	
1547,910	-72,56	
1547,912	-72,56	
1547,914	-72,56	
1547,916	-72,56	
1547,918	-72,56	
1547,920	-71,04	
1547,922	-72,56	
1547,924	-72,56	
1547,926	-72,56	
1547,928	-72,56	
1547,930	-72,56	
1547,932	-72,56	
1547,934	-69,43	
1547,936	-70,57	
1547,938	-69,75	
1547,940	-71,53	
1547,942	-72,56	
1547,944	-70,97	
1547,946	-72,56	
1547,948	-72,56	
1547,950	-72,56	
1547,952	-72,56	
1547,954	-72,13	
1547,956	-72,07	
1547,958	-72,56	
1547,960	-72,56	
1547,962	-72,56	
1547,964	-67,29	
1547,966	-67,01	
1547,968	-72,56	
1547,970	-72,56	
1547,972	-72,56	
1547,974	-72,36	
1547,976	-72,56	
1547,978	-68,57	
1547,980	-68,01	
1547,982	-72,56	
1547,984	-72,56	
1547,986	-72,56	
1547,988	-72,56	
1547,990	-72,56	
1547,992	-72,56	
1547,994	-72,56	
1547,996	-72,56	
1547,998	-72,56	
1548,000	-72,56	
1548,002	-72,56	
1548,004	-72,56	
1548,006	-72,56	
1548,008	-70,55	
1548,010	-72,56	
1548,012	-71,30	
1548,014	-68,74	
1548,016	-69,52	
1548,018	-72,56	
1548,020	-72,56	
1548,022	-72,56	
1548,024	-72,56	
1548,026	-72,14	
1548,028	-70,29	
1548,030	-72,56	
1548,032	-72,56	
1548,034	-72,56	
1548,036	-72,56	
1548,038	-72,56	
1548,040	-72,56	
1548,042	-72,56	
1548,044	-72,56	
1548,046	-72,56	
1548,048	-72,56	
1548,050	-72,56	
1548,052	-69,35	
1548,054	-69,35	
1548,056	-72,56	
1548,058	-72,56	
1548,060	-72,56	
1548,062	-70,61	
1548,064	-72,56	
1548,066	-72,56	
1548,068	-72,56	
1548,070	-72,56	
1548,072	-70,92	
1548,074	-70,63	
1548,076	-72,56	
1548,078	-72,56	
1548,080	-72,56	
1548,082	-72,56	
1548,084	-72,56	
1548,086	-72,56	
1548,088	-72,56	
1548,090	-72,56	
1548,092	-72,56	
1548,094	-72,56	
1548,096	-72,56	
1548,098	-71,46	
1548,100	-72,07	
1548,102	-70,60	
1548,104	-70,44	
1548,106	-72,56	
1548,108	-72,56	
1548,110	-72,56	
1548,112	-72,56	
1548,114	-72,56	
1548,116	-72,56	
1548,118	-72,56	
1548,120	-72,56	
1548,122	-70,92	
1548,124	-72,56	
1548,126	-72,56	
1548,128	-70,33	
1548,130	-68,50	
1548,132	-68,74	
1548,134	-70,47	
1548,136	-72,56	
1548,138	-72,56	
1548,140	-69,27	
1548,142	-72,56	
1548,144	-71,89	
1548,146	-66,56	
1548,148	-72,56	
1548,150	-72,56	
1548,152	-72,56	
1548,154	-72,56	
1548,156	-72,56	
1548,158	-72,56	
1548,160	-72,56	
1548,162	-72,56	
1548,164	-72,56	
1548,166	-72,56	
1548,168	-72,56	
1548,170	-71,40	
1548,172	-72,56	
1548,174	-72,56	
1548,176	-72,56	
1548,178	-72,56	
1548,180	-72,56	
1548,182	-72,56	
1548,184	-72,56	
1548,186	-72,56	
1548,188	-72,56	
1548,190	-72,56	
1548,192	-72,56	
1548,194	-70,00	
1548,196	-69,23	
1548,198	-68,94	
1548,200	-69,09	
1548,202	-72,56	
1548,204	-72,56	
1548,206	-69,07	
1548,208	-71,99	
1548,210	-69,07	
1548,212	-70,52	
1548,214	-72,05	
1548,216	-72,56	
1548,218	-72,56	
1548,220	-72,56	
1548,222	-72,56	
1548,224	-72,33	
1548,226	-69,42	
1548,228	-67,67	
1548,230	-72,56	
1548,232	-67,51	
1548,234	-67,62	
1548,236	-72,56	
1548,238	-72,56	
1548,240	-72,56	
1548,242	-72,56	
1548,244	-72,56	
1548,246	-72,56	
1548,248	-72,56	
1548,250	-72,56	
1548,252	-72,56	
1548,254	-72,56	
1548,256	-72,56	
1548,258	-72,56	
1548,260	-68,79	
1548,262	-72,56	
1548,264	-72,56	
1548,266	-72,56	
1548,268	-72,56	
1548,270	-72,56	
1548,272	-70,21	
1548,274	-71,07	
1548,276	-70,76	
1548,278	-71,01	
1548,280	-72,10	
1548,282	-72,56	
1548,284	-72,56	
1548,286	-72,56	
1548,288	-71,85	
1548,290	-72,56	
1548,292	-72,56	
1548,294	-72,56	
1548,296	-70,44	
1548,298	-69,16	
1548,300	-72,56	
1548,302	-72,56	
1548,304	-72,56	
1548,306	-72,56	
1548,308	-72,56	
1548,310	-72,56	
1548,312	-72,56	
1548,314	-72,56	
1548,316	-72,56	
1548,318	-72,56	
1548,320	-72,56	
1548,322	-72,56	
1548,324	-72,56	
1548,326	-72,56	
1548,328	-72,56	
1548,330	-72,56	
1548,332	-72,56	
1548,334	-71,75	
1548,336	-70,39	
1548,338	-69,10	
1548,340	-72,56	
1548,342	-72,56	
1548,344	-72,56	
1548,346	-72,56	
1548,348	-72,56	
1548,350	-72,56	
1548,352	-72,56	
1548,354	-66,46	
1548,356	-72,56	
1548,358	-72,28	
1548,360	-72,56	
1548,362	-72,56	
1548,364	-72,56	
1548,366	-72,56	
1548,368	-72,56	
1548,370	-70,39	
1548,372	-72,56	
1548,374	-72,56	
1548,376	-72,56	
1548,378	-72,51	
1548,380	-72,56	
1548,382	-72,56	
1548,384	-72,56	
1548,386	-72,56	
1548,388	-72,56	
1548,390	-70,22	
1548,392	-72,56	
1548,394	-72,56	
1548,396	-72,56	
1548,398	-72,56	
1548,400	-69,58	
1548,402	-72,56	
1548,404	-72,56	
1548,406	-72,56	
1548,408	-72,56	
1548,410	-71,57	
1548,412	-72,56	
1548,414	-72,56	
1548,416	-72,56	
1548,418	-72,56	
1548,420	-72,56	
1548,422	-72,56	
1548,424	-72,56	
1548,426	-72,56	
1548,428	-72,56	
1548,430	-72,56	
1548,432	-71,65	
1548,434	-72,56	
1548,436	-72,56	
1548,438	-72,56	
1548,440	-67,52	
1548,442	-67,14	
1548,444	-68,62	
1548,446	-68,90	
1548,448	-72,56	
1548,450	-72,56	
1548,452	-72,56	
1548,454	-72,56	
1548,456	-70,50	
1548,458	-72,56	
1548,460	-72,56	
1548,462	-69,90	
1548,464	-72,56	
1548,466	-72,56	
1548,468	-72,56	
1548,470	-72,56	
1548,472	-72,56	
1548,474	-72,56	
1548,476	-72,56	
1548,478	-72,56	
1548,480	-72,56	
1548,482	-72,56	
1548,484	-72,56	
1548,486	-72,56	
1548,488	-72,56	
1548,490	-72,56	
1548,492	-72,56	
1548,494	-72,56	
1548,496	-72,56	
1548,498	-72,56	
1548,500	-72,56	
1548,502	-72,56	
1548,504	-72,56	
1548,506	-72,56	
1548,508	-72,56	
1548,510	-72,56	
1548,512	-72,56	
1548,514	-71,06	
1548,516	-71,17	
1548,518	-72,56	
1548,520	-72,56	
1548,522	-72,56	
1548,524	-72,56	
1548,526	-72,56	
1548,528	-71,74	
1548,530	-67,41	
1548,532	-69,03	
1548,534	-72,56	
1548,536	-72,56	
1548,538	-72,56	
1548,540	-72,56	
1548,542	-72,56	
1548,544	-72,56	
1548,546	-72,56	
1548,548	-72,56	
1548,550	-68,55	
1548,552	-69,94	
1548,554	-72,56	
1548,556	-72,56	
1548,558	-71,06	
1548,560	-72,56	
1548,562	-72,56	
1548,564	-72,56	
1548,566	-72,56	
1548,568	-71,62	
1548,570	-72,56	
1548,572	-72,56	
1548,574	-72,56	
1548,576	-72,56	
1548,578	-72,56	
1548,580	-70,37	
1548,582	-72,56	
1548,584	-72,56	
1548,586	-72,56	
1548,588	-72,56	
1548,590	-72,56	
1548,592	-71,61	
1548,594	-71,47	
1548,596	-72,56	
1548,598	-71,39	
1548,600	-70,28	
1548,602	-69,01	
1548,604	-71,97	
1548,606	-72,56	
1548,608	-71,25	
1548,610	-72,56	
1548,612	-72,56	
1548,614	-69,23	
1548,616	-72,56	
1548,618	-72,56	
1548,620	-72,56	
1548,622	-72,56	
1548,624	-72,56	
1548,626	-72,56	
1548,628	-72,56	
1548,630	-68,27	
1548,632	-72,56	
1548,634	-69,11	
1548,636	-72,56	
1548,638	-72,56	
1548,640	-72,56	
1548,642	-72,56	
1548,644	-72,56	
1548,646	-72,56	
1548,648	-72,56	
1548,650	-72,56	
1548,652	-72,56	
1548,654	-72,56	
1548,656	-70,50	
1548,658	-69,64	
1548,660	-69,48	
1548,662	-67,61	
1548,664	-69,37	
1548,666	-69,56	
1548,668	-72,56	
1548,670	-72,56	
1548,672	-72,56	
1548,674	-71,42	
1548,676	-72,56	
1548,678	-72,56	
1548,680	-72,56	
1548,682	-72,56	
1548,684	-72,56	
1548,686	-72,56	
1548,688	-72,56	
1548,690	-72,56	
1548,692	-72,56	
1548,694	-72,56	
1548,696	-72,56	
1548,698	-71,32	
1548,700	-72,56	
1548,702	-72,56	
1548,704	-70,64	
1548,706	-72,56	
1548,708	-71,48	
1548,710	-72,56	
1548,712	-72,56	
1548,714	-70,84	
1548,716	-72,56	
1548,718	-72,56	
1548,720	-72,56	
1548,722	-72,56	
1548,724	-72,56	
1548,726	-72,56	
1548,728	-71,62	
1548,730	-72,56	
1548,732	-72,56	
1548,734	-72,56	
1548,736	-70,97	
1548,738	-69,38	
1548,740	-71,18	
1548,742	-71,64	
1548,744	-72,56	
1548,746	-70,73	
1548,748	-70,18	
1548,750	-72,56	
1548,752	-72,56	
1548,754	-72,56	
1548,756	-72,56	
1548,758	-72,56	
1548,760	-72,56	
1548,762	-72,56	
1548,764	-72,56	
1548,766	-72,56	
1548,768	-72,56	
1548,770	-72,56	
1548,772	-72,56	
1548,774	-71,66	
1548,776	-70,66	
1548,778	-72,56	
1548,780	-72,56	
1548,782	-72,56	
1548,784	-72,56	
1548,786	-72,56	
1548,788	-72,56	
1548,790	-71,12	
1548,792	-69,81	
1548,794	-72,56	
1548,796	-72,56	
1548,798	-69,82	
1548,800	-72,56	
1548,802	-72,56	
1548,804	-72,52	
1548,806	-71,30	
1548,808	-72,11	
1548,810	-71,17	
1548,812	-72,56	
1548,814	-72,56	
1548,816	-72,56	
1548,818	-72,56	
1548,820	-72,56	
1548,822	-72,56	
1548,824	-72,56	
1548,826	-72,56	
1548,828	-72,56	
1548,830	-69,13	
1548,832	-72,56	
1548,834	-72,56	
1548,836	-72,56	
1548,838	-72,56	
1548,840	-72,56	
1548,842	-72,56	
1548,844	-72,56	
1548,846	-72,36	
1548,848	-72,56	
1548,850	-72,56	
1548,852	-72,56	
1548,854	-69,49	
1548,856	-69,76	
1548,858	-72,56	
1548,860	-72,56	
1548,862	-71,90	
1548,864	-70,27	
1548,866	-72,17	
1548,868	-72,36	
1548,870	-72,56	
1548,872	-72,56	
1548,874	-72,56	
1548,876	-72,56	
1548,878	-72,56	
1548,880	-72,56	
1548,882	-72,56	
1548,884	-72,38	
1548,886	-72,56	
1548,888	-72,56	
1548,890	-72,56	
1548,892	-72,56	
1548,894	-72,56	
1548,896	-72,56	
1548,898	-72,56	
1548,900	-72,56	
1548,902	-72,56	
1548,904	-72,56	
1548,906	-72,56	
1548,908	-67,26	
1548,910	-67,87	
1548,912	-70,53	
1548,914	-72,56	
1548,916	-72,56	
1548,918	-72,35	
1548,920	-70,90	
1548,922	-72,56	
1548,924	-72,56	
1548,926	-72,56	
1548,928	-72,56	
1548,930	-70,14	
1548,932	-72,56	
1548,934	-71,82	
1548,936	-70,96	
1548,938	-72,56	
1548,940	-72,56	
1548,942	-69,53	
1548,944	-71,38	
1548,946	-72,56	
1548,948	-71,69	
1548,950	-72,56	
1548,952	-72,56	
1548,954	-72,56	
1548,956	-72,56	
1548,958	-70,04	
1548,960	-67,92	
1548,962	-70,72	
1548,964	-65,96	
1548,966	-72,56	
1548,968	-71,95	
1548,970	-69,93	
1548,972	-71,43	
1548,974	-72,56	
1548,976	-72,56	
1548,978	-72,56	
1548,980	-72,56	
1548,982	-72,56	
1548,984	-68,07	
1548,986	-71,16	
1548,988	-72,56	
1548,990	-68,87	
1548,992	-72,56	
1548,994	-72,56	
1548,996	-71,45	
1548,998	-72,56	
1549,000	-72,56	
1549,002	-69,88	
1549,004	-65,41	
1549,006	-70,68	
1549,008	-72,56	
1549,010	-72,56	
1549,012	-72,56	
1549,014	-70,80	
1549,016	-67,85	
1549,018	-71,83	
1549,020	-72,56	
1549,022	-72,56	
1549,024	-72,56	
1549,026	-70,09	
1549,028	-66,16	
1549,030	-66,81	
1549,032	-70,07	
1549,034	-66,79	
1549,036	-66,22	
1549,038	-72,07	
1549,040	-72,00	
1549,042	-68,23	
1549,044	-68,40	
1549,046	-66,04	
1549,048	-64,79	
1549,050	-64,07	
1549,052	-64,12	
1549,054	-63,83	
1549,056	-63,18	
1549,058	-62,91	
1549,060	-62,68	
1549,062	-62,25	
1549,064	-61,74	
1549,066	-61,90	
1549,068	-61,25	
1549,070	-60,34	
1549,072	-60,34	
1549,074	-59,90	
1549,076	-59,64	
1549,078	-59,30	
1549,080	-59,56	
1549,082	-59,55	
1549,084	-59,60	
1549,086	-59,48	
1549,088	-59,14	
1549,090	-59,05	
1549,092	-58,89	
1549,094	-58,17	
1549,096	-57,52	
1549,098	-57,61	
1549,100	-57,30	
1549,102	-57,21	
1549,104	-57,34	
1549,106	-56,82	
1549,108	-56,59	
1549,110	-56,37	
1549,112	-56,22	
1549,114	-55,92	
1549,116	-55,84	
1549,118	-55,82	
1549,120	-55,52	
1549,122	-55,27	
1549,124	-55,20	
1549,126	-55,02	
1549,128	-55,08	
1549,130	-54,96	
1549,132	-54,89	
1549,134	-54,67	
1549,136	-54,68	
1549,138	-54,47	
1549,140	-54,41	
1549,142	-54,43	
1549,144	-54,40	
1549,146	-54,38	
1549,148	-54,18	
1549,150	-54,03	
1549,152	-54,09	
1549,154	-53,95	
1549,156	-53,59	
1549,158	-53,27	
1549,160	-52,72	
1549,162	-52,16	
1549,164	-51,64	
1549,166	-50,34	
1549,168	-48,94	
1549,170	-47,18	
1549,172	-45,92	
1549,174	-44,45	
1549,176	-43,00	
1549,178	-41,63	
1549,180	-40,28	
1549,182	-38,80	
1549,184	-37,33	
1549,186	-36,23	
1549,188	-35,29	
1549,190	-34,28	
1549,192	-33,21	
1549,194	-32,26	
1549,196	-31,27	
1549,198	-30,34	
1549,200	-29,39	
1549,202	-28,54	
1549,204	-27,67	
1549,206	-26,81	
1549,208	-25,89	
1549,210	-25,10	
1549,212	-24,36	
1549,214	-23,69	
1549,216	-23,24	
1549,218	-22,71	
1549,220	-22,39	
1549,222	-22,00	
1549,224	-21,73	
1549,226	-21,53	
1549,228	-21,42	
1549,230	-21,43	
1549,232	-21,49	
1549,234	-21,65	
1549,236	-21,87	
1549,238	-22,19	
1549,240	-22,58	
1549,242	-22,96	
1549,244	-23,41	
1549,246	-24,03	
1549,248	-24,61	
1549,250	-25,15	
1549,252	-25,91	
1549,254	-26,73	
1549,256	-27,61	
1549,258	-28,59	
1549,260	-29,42	
1549,262	-30,02	
1549,264	-31,00	
1549,266	-32,02	
1549,268	-32,82	
1549,270	-33,88	
1549,272	-35,20	
1549,274	-36,41	
1549,276	-37,48	
1549,278	-38,56	
1549,280	-39,87	
1549,282	-41,28	
1549,284	-42,41	
1549,286	-44,02	
1549,288	-45,22	
1549,290	-46,48	
1549,292	-47,17	
1549,294	-48,01	
1549,296	-48,59	
1549,298	-49,09	
1549,300	-49,81	
1549,302	-50,35	
1549,304	-50,72	
1549,306	-51,03	
1549,308	-51,48	
1549,310	-51,90	
1549,312	-52,30	
1549,314	-52,74	
1549,316	-53,00	
1549,318	-53,06	
1549,320	-53,17	
1549,322	-53,27	
1549,324	-53,38	
1549,326	-53,39	
1549,328	-53,34	
1549,330	-53,30	
1549,332	-53,62	
1549,334	-53,50	
1549,336	-53,72	
1549,338	-53,98	
1549,340	-54,25	
1549,342	-54,46	
1549,344	-54,47	
1549,346	-54,64	
1549,348	-54,68	
1549,350	-54,60	
1549,352	-55,01	
1549,354	-55,31	
1549,356	-55,52	
1549,358	-55,82	
1549,360	-55,76	
1549,362	-56,41	
1549,364	-56,41	
1549,366	-56,92	
1549,368	-57,23	
1549,370	-57,30	
1549,372	-57,54	
1549,374	-57,87	
1549,376	-58,11	
1549,378	-58,22	
1549,380	-58,15	
1549,382	-58,41	
1549,384	-58,21	
1549,386	-58,21	
1549,388	-58,36	
1549,390	-58,47	
1549,392	-58,96	
1549,394	-59,35	
1549,396	-59,97	
1549,398	-60,44	
1549,400	-60,54	
1549,402	-60,44	
1549,404	-60,40	
1549,406	-60,74	
1549,408	-61,30	
1549,410	-61,15	
1549,412	-62,19	
1549,414	-62,29	
1549,416	-62,92	
1549,418	-62,00	
1549,420	-64,02	
1549,422	-62,97	
1549,424	-62,83	
1549,426	-62,96	
1549,428	-63,28	
1549,430	-63,48	
1549,432	-63,23	
1549,434	-63,54	
1549,436	-63,95	
1549,438	-63,81	
1549,440	-65,93	
1549,442	-65,17	
1549,444	-67,22	
1549,446	-66,95	
1549,448	-65,67	
1549,450	-65,03	
1549,452	-65,25	
1549,454	-65,75	
1549,456	-65,25	
1549,458	-64,58	
1549,460	-64,64	
1549,462	-64,60	
1549,464	-64,47	
1549,466	-65,64	
1549,468	-66,57	
1549,470	-64,44	
1549,472	-65,16	
1549,474	-66,24	
1549,476	-65,59	
1549,478	-67,94	
1549,480	-65,21	
1549,482	-67,92	
1549,484	-64,76	
1549,486	-65,50	
1549,488	-66,44	
1549,490	-66,03	
1549,492	-66,04	
1549,494	-65,92	
1549,496	-65,77	
1549,498	-67,06	
1549,500	-67,43	
1549,502	-71,09	
1549,504	-66,95	
1549,506	-68,80	
1549,508	-65,70	
1549,510	-66,87	
1549,512	-69,49	
1549,514	-66,72	
1549,516	-66,32	
1549,518	-68,35	
1549,520	-68,81	
1549,522	-67,76	
1549,524	-66,64	
1549,526	-69,71	
1549,528	-63,97	
1549,530	-66,15	
1549,532	-64,86	
1549,534	-68,34	
1549,536	-72,56	
1549,538	-69,52	
1549,540	-67,60	
1549,542	-68,31	
1549,544	-67,46	
1549,546	-66,03	
1549,548	-67,45	
1549,550	-68,44	
1549,552	-67,44	
1549,554	-72,02	
1549,556	-66,02	
1549,558	-69,05	
1549,560	-66,30	
1549,562	-68,29	
1549,564	-68,66	
1549,566	-67,68	
1549,568	-68,37	
1549,570	-68,05	
1549,572	-68,69	
1549,574	-66,82	
1549,576	-68,69	
1549,578	-72,56	
1549,580	-70,67	
1549,582	-72,56	
1549,584	-72,56	
1549,586	-69,54	
1549,588	-68,04	
1549,590	-69,53	
1549,592	-72,56	
1549,594	-71,29	
1549,596	-68,06	
1549,598	-68,10	
1549,600	-67,37	
1549,602	-68,15	
1549,604	-67,69	
1549,606	-70,00	
1549,608	-71,54	
1549,610	-69,50	
1549,612	-69,54	
1549,614	-68,93	
1549,616	-65,50	
1549,618	-68,88	
1549,620	-69,26	
1549,622	-65,63	
1549,624	-69,27	
1549,626	-68,07	
1549,628	-66,66	
1549,630	-67,39	
1549,632	-69,23	
1549,634	-69,05	
1549,636	-69,27	
1549,638	-72,56	
1549,640	-67,11	
1549,642	-72,56	
1549,644	-69,93	
1549,646	-65,52	
1549,648	-68,19	
1549,650	-72,56	
1549,652	-68,74	
1549,654	-68,22	
1549,656	-71,08	
1549,658	-70,22	
1549,660	-72,56	
1549,662	-72,56	
1549,664	-69,66	
1549,666	-72,56	
1549,668	-72,56	
1549,670	-69,75	
1549,672	-67,86	
1549,674	-67,13	
1549,676	-67,19	
1549,678	-67,81	
1549,680	-68,67	
1549,682	-67,68	
1549,684	-72,18	
1549,686	-72,56	
1549,688	-68,18	
1549,690	-68,92	
1549,692	-71,00	
1549,694	-68,98	
1549,696	-67,42	
1549,698	-67,00	
1549,700	-67,72	
1549,702	-72,56	
1549,704	-71,15	
1549,706	-72,56	
1549,708	-71,37	
1549,710	-72,56	
1549,712	-68,95	
1549,714	-72,56	
1549,716	-72,56	
1549,718	-72,56	
1549,720	-72,25	
1549,722	-72,56	
1549,724	-72,56	
1549,726	-69,26	
1549,728	-66,95	
1549,730	-67,13	
1549,732	-68,39	
1549,734	-70,04	
1549,736	-71,21	
1549,738	-70,12	
1549,740	-67,82	
1549,742	-72,56	
1549,744	-72,56	
1549,746	-72,56	
1549,748	-72,56	
1549,750	-71,58	
1549,752	-68,75	
1549,754	-69,80	
1549,756	-72,56	
1549,758	-72,56	
1549,760	-72,30	
1549,762	-69,00	
1549,764	-69,06	
1549,766	-69,08	
1549,768	-71,68	
1549,770	-72,56	
1549,772	-71,48	
1549,774	-70,01	
1549,776	-72,56	
1549,778	-72,56	
1549,780	-72,56	
1549,782	-69,70	
1549,784	-71,49	
1549,786	-72,56	
1549,788	-72,56	
1549,790	-71,95	
1549,792	-71,85	
1549,794	-72,56	
1549,796	-72,26	
1549,798	-72,56	
1549,800	-72,56	
1549,802	-68,96	
1549,804	-72,56	
1549,806	-72,56	
1549,808	-72,56	
1549,810	-72,56	
1549,812	-72,56	
1549,814	-72,56	
1549,816	-72,56	
1549,818	-72,56	
1549,820	-69,15	
1549,822	-66,72	
1549,824	-68,81	
1549,826	-71,85	
1549,828	-70,06	
1549,830	-69,16	
1549,832	-70,64	
1549,834	-72,56	
1549,836	-72,56	
1549,838	-72,56	
1549,840	-72,56	
1549,842	-72,56	
1549,844	-67,13	
1549,846	-72,56	
1549,848	-72,56	
1549,850	-72,56	
1549,852	-72,56	
1549,854	-69,17	
1549,856	-69,94	
1549,858	-71,54	
1549,860	-67,85	
1549,862	-66,27	
1549,864	-67,42	
1549,866	-67,91	
1549,868	-72,56	
1549,870	-72,56	
1549,872	-72,56	
1549,874	-72,56	
1549,876	-72,56	
1549,878	-72,56	
1549,880	-70,37	
1549,882	-69,47	
1549,884	-71,62	
1549,886	-71,84	
1549,888	-72,35	
1549,890	-72,24	
1549,892	-72,56	
1549,894	-68,80	
1549,896	-69,99	
1549,898	-68,70	
1549,900	-68,71	
1549,902	-72,56	
1549,904	-72,56	
1549,906	-70,14	
1549,908	-71,65	
1549,910	-72,28	
1549,912	-72,56	
1549,914	-72,56	
1549,916	-70,73	
1549,918	-71,63	
1549,920	-72,56	
1549,922	-72,56	
1549,924	-72,56	
1549,926	-72,56	
1549,928	-70,37	
1549,930	-66,91	
1549,932	-68,92	
1549,934	-72,56	
1549,936	-72,16	
1549,938	-68,12	
1549,940	-69,58	
1549,942	-72,56	
1549,944	-72,56	
1549,946	-72,56	
1549,948	-71,68	
1549,950	-68,00	
1549,952	-72,56	
1549,954	-72,56	
1549,956	-71,03	
1549,958	-72,56	
1549,960	-72,56	
1549,962	-70,76	
1549,964	-68,93	
1549,966	-68,80	
1549,968	-69,37	
1549,970	-66,66	
1549,972	-72,56	
1549,974	-71,48	
1549,976	-72,56	
1549,978	-72,56	
1549,980	-72,56	
1549,982	-72,56	
1549,984	-72,56	
1549,986	-70,57	
1549,988	-70,63	
1549,990	-68,93	
1549,992	-67,45	
1549,994	-72,56	
1549,996	-72,56	
1549,998	-68,38	
1550,000	-69,52	
1550,002	-72,56	
1550,004	-72,56	
1550,006	-72,56	
1550,008	-72,56	
1550,010	-72,56	
1550,012	-67,94	
1550,014	-70,57	
1550,016	-72,56	
1550,018	-72,56	
1550,020	-72,56	
1550,022	-72,56	
1550,024	-72,56	
1550,026	-72,56	
1550,028	-72,56	
1550,030	-67,75	
1550,032	-70,23	
1550,034	-72,56	
1550,036	-72,56	
1550,038	-72,56	
1550,040	-69,74	
1550,042	-72,56	
1550,044	-72,56	
1550,046	-70,52	
1550,048	-72,56	
1550,050	-72,56	
1550,052	-72,56	
1550,054	-71,74	
1550,056	-69,98	
1550,058	-68,45	
1550,060	-71,25	
1550,062	-72,56	
1550,064	-72,56	
1550,066	-72,56	
1550,068	-69,36	
1550,070	-72,56	
1550,072	-71,36	
1550,074	-72,56	
1550,076	-69,42	
1550,078	-69,58	
1550,080	-70,86	
1550,082	-72,56	
1550,084	-72,56	
1550,086	-72,56	
1550,088	-71,87	
1550,090	-72,56	
1550,092	-71,13	
1550,094	-65,68	
1550,096	-69,89	
1550,098	-72,56	
1550,100	-72,56	
1550,102	-71,85	
1550,104	-72,50	
1550,106	-72,56	
1550,108	-72,56	
1550,110	-72,56	
1550,112	-66,18	
1550,114	-72,56	
1550,116	-71,30	
1550,118	-71,44	
1550,120	-70,68	
1550,122	-70,86	
1550,124	-72,56	
1550,126	-72,56	
1550,128	-69,42	
1550,130	-69,38	
1550,132	-68,25	
1550,134	-69,80	
1550,136	-72,56	
1550,138	-72,51	
1550,140	-72,56	
1550,142	-72,56	
1550,144	-70,43	
1550,146	-72,56	
1550,148	-72,56	
1550,150	-72,32	
1550,152	-70,62	
1550,154	-69,42	
1550,156	-70,60	
1550,158	-72,56	
1550,160	-71,37	
1550,162	-65,79	
1550,164	-72,56	
1550,166	-72,56	
1550,168	-72,56	
1550,170	-72,56	
1550,172	-72,29	
1550,174	-72,56	
1550,176	-70,46	
1550,178	-65,96	
1550,180	-66,42	
1550,182	-67,44	
1550,184	-68,14	
1550,186	-71,71	
1550,188	-72,56	
1550,190	-72,38	
1550,192	-72,56	
1550,194	-72,56	
1550,196	-69,03	
1550,198	-72,56	
1550,200	-72,56	
1550,202	-72,56	
1550,204	-72,56	
1550,206	-72,56	
1550,208	-70,38	
1550,210	-67,27	
1550,212	-70,50	
1550,214	-72,56	
1550,216	-72,56	
1550,218	-68,44	
1550,220	-72,56	
1550,222	-72,56	
1550,224	-68,53	
1550,226	-72,56	
1550,228	-72,56	
1550,230	-69,15	
1550,232	-72,56	
1550,234	-72,56	
1550,236	-65,84	
1550,238	-67,43	
1550,240	-68,54	
1550,242	-71,75	
1550,244	-72,56	
1550,246	-71,35	
1550,248	-68,64	
1550,250	-68,37	
1550,252	-71,04	
1550,254	-72,56	
1550,256	-72,56	
1550,258	-72,56	
1550,260	-72,56	
1550,262	-69,18	
1550,264	-72,56	
1550,266	-69,95	
1550,268	-72,56	
1550,270	-72,56	
1550,272	-72,56	
1550,274	-72,56	
1550,276	-72,56	
1550,278	-72,56	
1550,280	-72,56	
1550,282	-72,56	
1550,284	-72,56	
1550,286	-72,56	
1550,288	-72,56	
1550,290	-70,92	
1550,292	-71,16	
1550,294	-72,56	
1550,296	-70,08	
1550,298	-72,56	
1550,300	-72,56	
1550,302	-70,15	
1550,304	-72,56	
1550,306	-69,14	
1550,308	-70,49	
1550,310	-72,56	
1550,312	-72,56	
1550,314	-72,56	
1550,316	-70,67	
1550,318	-69,70	
1550,320	-72,56	
1550,322	-72,56	
1550,324	-72,47	
1550,326	-72,09	
1550,328	-72,56	
1550,330	-72,56	
1550,332	-68,80	
1550,334	-72,56	
1550,336	-70,90	
1550,338	-68,18	
1550,340	-72,56	
1550,342	-72,56	
1550,344	-72,56	
1550,346	-72,56	
1550,348	-70,52	
1550,350	-72,56	
1550,352	-70,21	
1550,354	-68,38	
1550,356	-69,67	
1550,358	-72,56	
1550,360	-72,56	
1550,362	-67,73	
1550,364	-67,43	
1550,366	-68,37	
1550,368	-69,25	
1550,370	-72,56	
1550,372	-72,56	
1550,374	-72,56	
1550,376	-71,09	
1550,378	-72,56	
1550,380	-68,91	
1550,382	-71,90	
1550,384	-71,13	
1550,386	-69,30	
1550,388	-67,71	
1550,390	-70,50	
1550,392	-72,56	
1550,394	-71,95	
1550,396	-72,56	
1550,398	-72,42	
1550,400	-72,56	
1550,402	-72,56	
1550,404	-72,56	
1550,406	-72,56	
1550,408	-68,96	
1550,410	-72,56	
1550,412	-72,56	
1550,414	-72,56	
1550,416	-69,89	
1550,418	-72,56	
1550,420	-72,56	
1550,422	-68,57	
1550,424	-72,13	
1550,426	-72,56	
1550,428	-72,56	
1550,430	-72,56	
1550,432	-72,56	
1550,434	-69,66	
1550,436	-68,67	
1550,438	-70,08	
1550,440	-72,56	
1550,442	-68,05	
1550,444	-72,18	
1550,446	-71,59	
1550,448	-72,56	
1550,450	-72,56	
1550,452	-72,46	
1550,454	-72,14	
1550,456	-72,56	
1550,458	-72,56	
1550,460	-72,56	
1550,462	-72,56	
1550,464	-72,56	
1550,466	-72,56	
1550,468	-72,56	
1550,470	-68,77	
1550,472	-72,56	
1550,474	-70,21	
1550,476	-69,85	
1550,478	-72,17	
1550,480	-70,14	
1550,482	-68,64	
1550,484	-70,32	
1550,486	-72,40	
1550,488	-72,56	
1550,490	-72,56	
1550,492	-72,56	
1550,494	-71,16	
1550,496	-72,56	
1550,498	-69,88	
1550,500	-72,56	
1550,502	-72,56	
1550,504	-72,56	
1550,506	-72,56	
1550,508	-72,56	
1550,510	-70,05	
1550,512	-69,77	
1550,514	-72,56	
1550,516	-72,56	
1550,518	-72,56	
1550,520	-72,56	
1550,522	-68,05	
1550,524	-69,28	
1550,526	-71,11	
1550,528	-68,60	
1550,530	-72,56	
1550,532	-72,56	
1550,534	-69,89	
1550,536	-72,56	
1550,538	-72,56	
1550,540	-71,49	
1550,542	-72,56	
1550,544	-72,56	
1550,546	-72,56	
1550,548	-71,39	
1550,550	-72,56	
1550,552	-72,12	
1550,554	-70,68	
1550,556	-67,17	
1550,558	-69,38	
1550,560	-71,54	
1550,562	-69,07	
1550,564	-71,83	
1550,566	-72,56	
1550,568	-72,56	
1550,570	-72,56	
1550,572	-72,56	
1550,574	-72,56	
1550,576	-72,56	
1550,578	-72,56	
1550,580	-65,50	
1550,582	-68,53	
1550,584	-66,45	
1550,586	-70,79	
1550,588	-70,84	
1550,590	-70,99	
1550,592	-72,56	
1550,594	-72,56	
1550,596	-72,56	
1550,598	-72,56	
1550,600	-72,56	
1550,602	-68,45	
1550,604	-72,56	
1550,606	-72,56	
1550,608	-72,56	
1550,610	-72,56	
1550,612	-72,56	
1550,614	-72,56	
1550,616	-69,42	
1550,618	-70,97	
1550,620	-72,56	
1550,622	-67,16	
1550,624	-67,21	
1550,626	-72,56	
1550,628	-72,56	
1550,630	-72,56	
1550,632	-72,56	
1550,634	-70,12	
1550,636	-72,56	
1550,638	-72,56	
1550,640	-72,56	
1550,642	-72,56	
1550,644	-72,56	
1550,646	-72,56	
1550,648	-72,56	
1550,650	-72,56	
1550,652	-72,56	
1550,654	-72,56	
1550,656	-72,56	
1550,658	-72,56	
1550,660	-72,56	
1550,662	-72,56	
1550,664	-72,56	
1550,666	-67,30	
1550,668	-72,56	
1550,670	-66,76	
1550,672	-70,92	
1550,674	-68,56	
1550,676	-68,23	
1550,678	-72,56	
1550,680	-70,64	
1550,682	-72,56	
1550,684	-72,56	
1550,686	-72,30	
1550,688	-72,56	
1550,690	-72,56	
1550,692	-70,83	
1550,694	-72,16	
1550,696	-69,90	
1550,698	-72,56	
1550,700	-72,56	
1550,702	-72,56	
1550,704	-72,56	
1550,706	-72,56	
1550,708	-72,56	
1550,710	-71,15	
1550,712	-72,56	
1550,714	-70,73	
1550,716	-68,26	
1550,718	-72,56	
1550,720	-72,56	
1550,722	-72,41	
1550,724	-72,56	
1550,726	-72,56	
1550,728	-72,56	
1550,730	-72,56	
1550,732	-72,56	
1550,734	-70,49	
1550,736	-68,83	
1550,738	-70,23	
1550,740	-72,56	
1550,742	-71,18	
1550,744	-68,86	
1550,746	-70,04	
1550,748	-72,52	
1550,750	-72,56	
1550,752	-72,56	
1550,754	-72,56	
1550,756	-72,56	
1550,758	-70,57	
1550,760	-70,51	
1550,762	-71,65	
1550,764	-71,81	
1550,766	-72,56	
1550,768	-72,56	
1550,770	-72,56	
1550,772	-72,56	
1550,774	-69,15	
1550,776	-69,71	
1550,778	-67,92	
1550,780	-69,04	
1550,782	-71,69	
1550,784	-72,42	
1550,786	-70,80	
1550,788	-72,28	
1550,790	-72,56	
1550,792	-67,10	
1550,794	-70,01	
1550,796	-72,56	
1550,798	-68,11	
1550,800	-71,42	
1550,802	-72,01	
1550,804	-69,98	
1550,806	-71,61	
1550,808	-72,56	
1550,810	-72,56	
1550,812	-72,56	
1550,814	-68,96	
1550,816	-72,56	
1550,818	-72,56	
1550,820	-72,48	
1550,822	-72,56	
1550,824	-72,56	
1550,826	-72,56	
1550,828	-69,14	
1550,830	-72,56	
1550,832	-72,56	
1550,834	-70,93	
1550,836	-72,56	
1550,838	-72,56	
1550,840	-72,56	
1550,842	-72,56	
1550,844	-72,56	
1550,846	-72,56	
1550,848	-68,61	
1550,850	-67,96	
1550,852	-71,12	
1550,854	-71,66	
1550,856	-69,37	
1550,858	-70,93	
1550,860	-69,06	
1550,862	-72,56	
1550,864	-70,83	
1550,866	-68,44	
1550,868	-70,41	
1550,870	-68,07	
1550,872	-67,95	
1550,874	-72,56	
1550,876	-71,35	
1550,878	-65,50	
1550,880	-72,56	
1550,882	-72,56	
1550,884	-72,56	
1550,886	-72,56	
1550,888	-72,56	
1550,890	-71,44	
1550,892	-72,56	
1550,894	-72,56	
1550,896	-72,56	
1550,898	-72,56	
1550,900	-70,89	
1550,902	-66,50	
1550,904	-72,56	
1550,906	-72,56	
1550,908	-72,56	
1550,910	-72,56	
1550,912	-72,56	
1550,914	-72,56	
1550,916	-72,56	
1550,918	-72,56	
1550,920	-69,07	
1550,922	-72,56	
1550,924	-69,14	
1550,926	-72,34	
1550,928	-72,56	
1550,930	-71,60	
1550,932	-72,56	
1550,934	-72,56	
1550,936	-68,15	
1550,938	-68,20	
1550,940	-72,56	
1550,942	-72,56	
1550,944	-69,67	
1550,946	-72,56	
1550,948	-72,56	
1550,950	-71,15	
1550,952	-70,47	
1550,954	-70,97	
1550,956	-69,09	
1550,958	-72,56	
1550,960	-72,56	
1550,962	-71,56	
1550,964	-66,76	
1550,966	-68,06	
1550,968	-72,56	
1550,970	-71,29	
1550,972	-69,05	
1550,974	-72,44	
1550,976	-72,56	
1550,978	-72,56	
1550,980	-72,56	
1550,982	-72,56	
1550,984	-67,99	
1550,986	-71,86	
1550,988	-72,56	
1550,990	-72,56	
1550,992	-72,56	
1550,994	-72,02	
1550,996	-70,01	
1550,998	-69,05	
1551,000	-67,23	
1551,002	-70,75	
1551,004	-72,56	
1551,006	-72,56	
1551,008	-69,30	
1551,010	-70,78	
1551,012	-72,56	
1551,014	-72,56	
1551,016	-72,56	
1551,018	-69,01	
1551,020	-69,50	
1551,022	-72,56	
1551,024	-68,86	
1551,026	-72,56	
1551,028	-72,56	
1551,030	-72,56	
1551,032	-69,99	
1551,034	-71,88	
1551,036	-72,56	
1551,038	-72,56	
1551,040	-68,68	
1551,042	-70,86	
1551,044	-72,56	
1551,046	-72,56	
1551,048	-72,56	
1551,050	-72,56	
1551,052	-66,53	
1551,054	-69,88	
1551,056	-72,42	
1551,058	-70,77	
1551,060	-72,56	
1551,062	-72,56	
1551,064	-72,56	
1551,066	-70,97	
1551,068	-72,56	
1551,070	-72,56	
1551,072	-72,56	
1551,074	-72,56	
1551,076	-70,00	
1551,078	-72,13	
1551,080	-70,30	
1551,082	-69,04	
1551,084	-72,56	
1551,086	-72,56	
1551,088	-72,56	
1551,090	-72,56	
1551,092	-72,06	
1551,094	-72,56	
1551,096	-72,56	
1551,098	-68,64	
1551,100	-72,56	
1551,102	-72,56	
1551,104	-72,56	
1551,106	-70,94	
1551,108	-68,40	
1551,110	-68,75	
1551,112	-72,56	
1551,114	-72,56	
1551,116	-72,56	
1551,118	-70,99	
1551,120	-72,20	
1551,122	-72,56	
1551,124	-72,56	
1551,126	-70,02	
1551,128	-68,55	
1551,130	-72,56	
1551,132	-72,56	
1551,134	-71,77	
1551,136	-70,37	
1551,138	-68,47	
1551,140	-70,53	
1551,142	-71,93	
1551,144	-71,09	
1551,146	-71,30	
1551,148	-68,70	
1551,150	-67,85	
1551,152	-69,99	
1551,154	-72,56	
1551,156	-72,56	
1551,158	-72,56	
1551,160	-71,17	
1551,162	-72,56	
1551,164	-72,56	
1551,166	-72,56	
1551,168	-72,56	
1551,170	-72,56	
1551,172	-71,35	
1551,174	-72,56	
1551,176	-72,56	
1551,178	-70,20	
1551,180	-72,56	
1551,182	-70,76	
1551,184	-68,49	
1551,186	-72,02	
1551,188	-72,56	
1551,190	-72,56	
1551,192	-68,82	
1551,194	-68,07	
1551,196	-68,75	
1551,198	-69,47	
1551,200	-68,07	
1551,202	-67,97	
1551,204	-72,56	
1551,206	-72,47	
1551,208	-72,56	
1551,210	-71,93	
1551,212	-71,97	
1551,214	-70,53	
1551,216	-71,16	
1551,218	-69,29	
1551,220	-69,67	
1551,222	-72,49	
1551,224	-70,40	
1551,226	-69,27	
1551,228	-71,22	
1551,230	-68,95	
1551,232	-69,65	
1551,234	-67,87	
1551,236	-66,18	
1551,238	-71,02	
1551,240	-70,05	
1551,242	-72,56	
1551,244	-72,56	
1551,246	-72,56	
1551,248	-72,56	
1551,250	-72,56	
1551,252	-72,56	
1551,254	-72,56	
1551,256	-65,89	
1551,258	-65,61	
1551,260	-69,86	
1551,262	-72,56	
1551,264	-72,56	
1551,266	-72,56	
1551,268	-72,56	
1551,270	-72,56	
1551,272	-67,73	
1551,274	-70,45	
1551,276	-68,77	
1551,278	-68,62	
1551,280	-72,56	
1551,282	-72,56	
1551,284	-72,56	
1551,286	-72,56	
1551,288	-72,56	
1551,290	-70,47	
1551,292	-70,29	
1551,294	-69,28	
1551,296	-69,00	
1551,298	-70,10	
1551,300	-66,71	
1551,302	-71,06	
1551,304	-72,56	
1551,306	-69,13	
1551,308	-72,56	
1551,310	-72,56	
1551,312	-69,51	
1551,314	-68,80	
1551,316	-65,93	
1551,318	-67,43	
1551,320	-72,42	
1551,322	-72,47	
1551,324	-72,56	
1551,326	-71,30	
1551,328	-72,56	
1551,330	-72,56	
1551,332	-70,29	
1551,334	-72,56	
1551,336	-72,56	
1551,338	-69,03	
1551,340	-71,78	
1551,342	-72,56	
1551,344	-72,56	
1551,346	-69,17	
1551,348	-69,22	
1551,350	-72,56	
1551,352	-72,56	
1551,354	-70,92	
1551,356	-72,56	
1551,358	-72,33	
1551,360	-67,19	
1551,362	-72,56	
1551,364	-72,56	
1551,366	-68,84	
1551,368	-71,66	
1551,370	-72,56	
1551,372	-72,56	
1551,374	-70,09	
1551,376	-68,00	
1551,378	-70,93	
1551,380	-72,56	
1551,382	-71,52	
1551,384	-71,29	
1551,386	-68,27	
1551,388	-67,70	
1551,390	-66,91	
1551,392	-69,59	
1551,394	-67,60	
1551,396	-67,10	
1551,398	-72,56	
1551,400	-69,73	
1551,402	-72,56	
1551,404	-69,13	
1551,406	-71,90	
1551,408	-72,56	
1551,410	-72,29	
1551,412	-72,56	
1551,414	-72,56	
1551,416	-72,56	
1551,418	-72,56	
1551,420	-72,56	
1551,422	-72,56	
1551,424	-72,56	
1551,426	-72,56	
1551,428	-72,56	
1551,430	-72,56	
1551,432	-71,12	
1551,434	-72,56	
1551,436	-72,56	
1551,438	-72,56	
1551,440	-70,36	
1551,442	-72,56	
1551,444	-72,56	
1551,446	-72,56	
1551,448	-67,81	
1551,450	-71,63	
1551,452	-72,56	
1551,454	-72,56	
1551,456	-68,37	
1551,458	-71,14	
1551,460	-72,56	
1551,462	-70,05	
1551,464	-70,50	
1551,466	-68,40	
1551,468	-68,25	
1551,470	-71,90	
1551,472	-72,56	
1551,474	-72,56	
1551,476	-69,03	
1551,478	-72,56	
1551,480	-72,56	
1551,482	-72,56	
1551,484	-72,56	
1551,486	-72,56	
1551,488	-72,56	
1551,490	-68,87	
1551,492	-68,48	
1551,494	-72,56	
1551,496	-72,56	
1551,498	-69,12	
1551,500	-72,56	
1551,502	-66,61	
1551,504	-69,64	
1551,506	-72,56	
1551,508	-72,56	
1551,510	-72,56	
1551,512	-72,56	
1551,514	-72,56	
1551,516	-72,56	
1551,518	-72,56	
1551,520	-72,56	
1551,522	-72,56	
1551,524	-72,56	
1551,526	-72,56	
1551,528	-72,56	
1551,530	-72,56	
1551,532	-69,45	
1551,534	-71,47	
1551,536	-69,48	
1551,538	-72,56	
1551,540	-72,56	
1551,542	-68,88	
1551,544	-72,56	
1551,546	-69,63	
1551,548	-72,56	
1551,550	-72,56	
1551,552	-68,65	
1551,554	-69,84	
1551,556	-72,56	
1551,558	-72,56	
1551,560	-72,56	
1551,562	-68,73	
1551,564	-69,62	
1551,566	-70,26	
1551,568	-69,44	
1551,570	-71,57	
1551,572	-72,56	
1551,574	-72,56	
1551,576	-72,56	
1551,578	-72,56	
1551,580	-69,76	
1551,582	-72,56	
1551,584	-72,56	
1551,586	-72,56	
1551,588	-69,52	
1551,590	-72,56	
1551,592	-72,56	
1551,594	-69,77	
1551,596	-68,73	
1551,598	-72,22	
1551,600	-68,32	
1551,602	-68,42	
1551,604	-71,41	
1551,606	-69,82	
1551,608	-69,00	
1551,610	-72,56	
1551,612	-72,56	
1551,614	-72,56	
1551,616	-72,56	
1551,618	-71,74	
1551,620	-72,56	
1551,622	-71,97	
1551,624	-69,42	
1551,626	-72,56	
1551,628	-72,56	
1551,630	-72,56	
1551,632	-72,29	
1551,634	-72,56	
1551,636	-69,94	
1551,638	-70,37	
1551,640	-68,44	
1551,642	-66,91	
1551,644	-67,10	
1551,646	-70,90	
1551,648	-72,56	
1551,650	-72,56	
1551,652	-72,56	
1551,654	-72,56	
1551,656	-72,56	
1551,658	-72,56	
1551,660	-72,56	
1551,662	-70,93	
1551,664	-72,56	
1551,666	-72,56	
1551,668	-67,27	
1551,670	-66,57	
1551,672	-72,56	
1551,674	-72,56	
1551,676	-70,11	
1551,678	-72,56	
1551,680	-72,56	
1551,682	-72,56	
1551,684	-72,56	
1551,686	-69,33	
1551,688	-72,56	
1551,690	-70,74	
1551,692	-71,28	
1551,694	-72,56	
1551,696	-72,56	
1551,698	-72,56	
1551,700	-72,56	
1551,702	-72,56	
1551,704	-72,56	
1551,706	-72,56	
1551,708	-72,40	
1551,710	-71,01	
1551,712	-71,85	
1551,714	-68,15	
1551,716	-68,46	
1551,718	-69,75	
1551,720	-69,85	
1551,722	-72,56	
1551,724	-72,56	
1551,726	-72,56	
1551,728	-72,56	
1551,730	-72,56	
1551,732	-72,56	
1551,734	-72,56	
1551,736	-72,56	
1551,738	-71,83	
1551,740	-67,43	
1551,742	-72,56	
1551,744	-72,56	
1551,746	-72,56	
1551,748	-72,56	
1551,750	-72,56	
1551,752	-72,56	
1551,754	-71,81	
1551,756	-69,61	
1551,758	-71,37	
1551,760	-69,84	
1551,762	-71,85	
1551,764	-65,42	
1551,766	-72,56	
1551,768	-72,56	
1551,770	-72,56	
1551,772	-72,56	
1551,774	-72,56	
1551,776	-71,70	
1551,778	-72,56	
1551,780	-71,96	
1551,782	-69,65	
1551,784	-72,56	
1551,786	-72,56	
1551,788	-72,56	
1551,790	-72,56	
1551,792	-69,09	
1551,794	-67,85	
1551,796	-72,56	
1551,798	-72,04	
1551,800	-70,05	
1551,802	-72,56	
1551,804	-72,56	
1551,806	-72,56	
1551,808	-72,56	
1551,810	-72,56	
1551,812	-72,56	
1551,814	-72,56	
1551,816	-72,56	
1551,818	-70,48	
1551,820	-70,71	
1551,822	-72,56	
1551,824	-71,15	
1551,826	-72,56	
1551,828	-72,56	
1551,830	-72,56	
1551,832	-72,56	
1551,834	-70,80	
1551,836	-69,43	
1551,838	-67,43	
1551,840	-68,44	
1551,842	-72,56	
1551,844	-72,56	
1551,846	-72,56	
1551,848	-72,56	
1551,850	-72,56	
1551,852	-69,92	
1551,854	-72,56	
1551,856	-72,56	
1551,858	-72,56	
1551,860	-72,56	
1551,862	-72,56	
1551,864	-72,56	
1551,866	-70,54	
1551,868	-72,56	
1551,870	-70,64	
1551,872	-70,30	
1551,874	-72,56	
1551,876	-72,56	
1551,878	-71,00	
1551,880	-72,56	
1551,882	-72,56	
1551,884	-72,56	
1551,886	-72,56	
1551,888	-72,56	
1551,890	-72,56	
1551,892	-72,56	
1551,894	-70,08	
1551,896	-72,56	
1551,898	-72,56	
1551,900	-72,56	
1551,902	-72,56	
1551,904	-72,56	
1551,906	-72,56	
1551,908	-72,56	
1551,910	-72,09	
1551,912	-72,56	
1551,914	-70,13	
1551,916	-72,56	
1551,918	-72,56	
1551,920	-72,56	
1551,922	-70,23	
1551,924	-68,48	
1551,926	-68,78	
1551,928	-70,45	
1551,930	-72,56	
1551,932	-70,78	
1551,934	-72,56	
1551,936	-72,56	
1551,938	-72,56	
1551,940	-70,67	
1551,942	-67,38	
1551,944	-69,43	
1551,946	-72,56	
1551,948	-72,56	
1551,950	-72,56	
1551,952	-72,56	
1551,954	-72,56	
1551,956	-72,56	
1551,958	-72,56	
1551,960	-69,07	
1551,962	-68,53	
1551,964	-72,56	
1551,966	-72,56	
1551,968	-70,92	
1551,970	-71,15	
1551,972	-68,39	
1551,974	-71,99	
1551,976	-72,56	
1551,978	-72,56	
1551,980	-72,56	
1551,982	-71,25	
1551,984	-69,63	
1551,986	-72,56	
1551,988	-72,56	
1551,990	-72,51	
1551,992	-72,56	
1551,994	-72,56	
1551,996	-71,94	
1551,998	-72,56	
1552,000	-69,02	
1552,002	-69,26	
1552,004	-72,56	
1552,006	-72,56	
1552,008	-72,56	
1552,010	-72,56	
1552,012	-72,56	
1552,014	-72,56	
1552,016	-72,56	
1552,018	-68,38	
1552,020	-71,57	
1552,022	-72,56	
1552,024	-70,16	
1552,026	-72,44	
1552,028	-72,56	
1552,030	-72,56	
1552,032	-72,56	
1552,034	-72,56	
1552,036	-68,72	
1552,038	-72,56	
1552,040	-72,56	
1552,042	-72,56	
1552,044	-71,72	
1552,046	-72,19	
1552,048	-72,56	
1552,050	-72,56	
1552,052	-72,56	
1552,054	-72,56	
1552,056	-72,56	
1552,058	-70,58	
1552,060	-72,56	
1552,062	-69,73	
1552,064	-72,56	
1552,066	-72,56	
1552,068	-68,23	
1552,070	-70,23	
1552,072	-72,56	
1552,074	-72,35	
1552,076	-68,98	
1552,078	-72,11	
1552,080	-67,83	
1552,082	-66,60	
1552,084	-72,56	
1552,086	-69,97	
1552,088	-70,11	
1552,090	-72,56	
1552,092	-72,56	
1552,094	-72,56	
1552,096	-72,56	
1552,098	-72,56	
1552,100	-69,48	
1552,102	-71,27	
1552,104	-72,56	
1552,106	-72,56	
1552,108	-72,56	
1552,110	-72,56	
1552,112	-72,56	
1552,114	-72,56	
1552,116	-68,93	
1552,118	-66,16	
1552,120	-68,00	
1552,122	-72,56	
1552,124	-72,56	
1552,126	-72,56	
1552,128	-72,56	
1552,130	-72,56	
1552,132	-72,56	
1552,134	-72,56	
1552,136	-72,56	
1552,138	-72,56	
1552,140	-72,56	
1552,142	-72,56	
1552,144	-70,90	
1552,146	-72,56	
1552,148	-72,56	
1552,150	-72,52	
1552,152	-70,23	
1552,154	-72,56	
1552,156	-72,56	
1552,158	-72,56	
1552,160	-72,56	
1552,162	-72,56	
1552,164	-71,74	
1552,166	-71,69	
1552,168	-72,06	
1552,170	-72,56	
1552,172	-72,56	
1552,174	-72,56	
1552,176	-72,56	
1552,178	-67,32	
1552,180	-70,80	
1552,182	-69,93	
1552,184	-72,56	
1552,186	-65,93	
1552,188	-70,44	
1552,190	-69,12	
1552,192	-69,48	
1552,194	-72,56	
1552,196	-72,56	
1552,198	-72,56	
1552,200	-70,85	
1552,202	-72,56	
1552,204	-72,56	
1552,206	-72,56	
1552,208	-72,56	
1552,210	-72,56	
1552,212	-72,56	
1552,214	-72,56	
1552,216	-72,56	
1552,218	-72,56	
1552,220	-72,56	
1552,222	-67,92	
1552,224	-67,61	
1552,226	-68,32	
1552,228	-67,29	
1552,230	-68,85	
1552,232	-72,52	
1552,234	-72,56	
1552,236	-72,56	
1552,238	-72,56	
1552,240	-70,66	
1552,242	-67,26	
1552,244	-72,56	
1552,246	-72,56	
1552,248	-71,82	
1552,250	-72,56	
1552,252	-72,56	
1552,254	-72,56	
1552,256	-72,56	
1552,258	-68,72	
1552,260	-70,75	
1552,262	-72,56	
1552,264	-67,86	
1552,266	-71,71	
1552,268	-70,16	
1552,270	-69,16	
1552,272	-69,70	
1552,274	-69,50	
1552,276	-72,56	
1552,278	-72,56	
1552,280	-72,56	
1552,282	-72,56	
1552,284	-72,56	
1552,286	-72,56	
1552,288	-72,56	
1552,290	-66,77	
1552,292	-70,49	
1552,294	-72,56	
1552,296	-68,04	
1552,298	-72,56	
1552,300	-68,46	
1552,302	-72,28	
1552,304	-72,56	
1552,306	-72,56	
1552,308	-68,53	
1552,310	-69,44	
1552,312	-72,56	
1552,314	-72,56	
1552,316	-72,56	
1552,318	-72,56	
1552,320	-70,21	
1552,322	-72,56	
1552,324	-72,56	
1552,326	-69,62	
1552,328	-72,56	
1552,330	-72,56	
1552,332	-72,56	
1552,334	-69,85	
1552,336	-68,31	
1552,338	-69,96	
1552,340	-69,32	
1552,342	-72,56	
1552,344	-70,48	
1552,346	-71,41	
1552,348	-69,51	
1552,350	-72,56	
1552,352	-72,56	
1552,354	-72,56	
1552,356	-72,56	
1552,358	-72,56	
1552,360	-72,56	
1552,362	-72,56	
1552,364	-72,56	
1552,366	-72,56	
1552,368	-72,56	
1552,370	-72,56	
1552,372	-69,88	
1552,374	-71,90	
1552,376	-69,06	
1552,378	-68,20	
1552,380	-72,56	
1552,382	-69,65	
1552,384	-71,74	
1552,386	-69,04	
1552,388	-71,96	
1552,390	-72,56	
1552,392	-69,51	
1552,394	-72,56	
1552,396	-72,56	
1552,398	-72,56	
1552,400	-72,56	
1552,402	-72,56	
1552,404	-72,56	
1552,406	-71,86	
1552,408	-67,30	
1552,410	-71,73	
1552,412	-72,56	
1552,414	-72,56	
1552,416	-69,37	
1552,418	-70,04	
1552,420	-67,18	
1552,422	-70,48	
1552,424	-72,56	
1552,426	-69,62	
1552,428	-72,56	
1552,430	-72,56	
1552,432	-72,56	
1552,434	-72,56	
1552,436	-72,56	
1552,438	-72,56	
1552,440	-72,56	
1552,442	-72,56	
1552,444	-72,56	
1552,446	-71,12	
1552,448	-69,75	
1552,450	-72,56	
1552,452	-69,96	
1552,454	-72,56	
1552,456	-72,56	
1552,458	-71,36	
1552,460	-72,56	
1552,462	-72,56	
1552,464	-72,56	
1552,466	-72,56	
1552,468	-67,21	
1552,470	-67,96	
1552,472	-72,56	
1552,474	-72,56	
1552,476	-72,56	
1552,478	-72,56	
1552,480	-70,90	
1552,482	-67,65	
1552,484	-68,76	
1552,486	-67,76	
1552,488	-67,26	
1552,490	-72,56	
1552,492	-70,88	
1552,494	-70,23	
1552,496	-70,65	
1552,498	-68,34	
1552,500	-70,60	
1552,502	-72,56	
1552,504	-72,56	
1552,506	-72,56	
1552,508	-72,56	
1552,510	-72,56	
1552,512	-72,56	
1552,514	-72,56	
1552,516	-72,56	
1552,518	-69,72	
1552,520	-69,31	
1552,522	-66,81	
1552,524	-66,31	
1552,526	-72,56	
1552,528	-72,56	
1552,530	-70,26	
1552,532	-72,56	
1552,534	-72,56	
1552,536	-72,56	
1552,538	-71,10	
1552,540	-72,56	
1552,542	-72,56	
1552,544	-72,56	
1552,546	-68,30	
1552,548	-69,70	
1552,550	-72,56	
1552,552	-69,61	
1552,554	-72,21	
1552,556	-72,56	
1552,558	-72,56	
1552,560	-72,56	
1552,562	-72,56	
1552,564	-72,56	
1552,566	-71,95	
1552,568	-70,47	
1552,570	-66,44	
1552,572	-68,22	
1552,574	-68,01	
1552,576	-72,56	
1552,578	-72,56	
1552,580	-71,71	
1552,582	-72,56	
1552,584	-72,56	
1552,586	-72,56	
1552,588	-72,56	
1552,590	-72,56	
1552,592	-72,30	
1552,594	-69,59	
1552,596	-69,74	
1552,598	-70,19	
1552,600	-72,56	
1552,602	-71,08	
1552,604	-72,56	
1552,606	-71,77	
1552,608	-68,61	
1552,610	-67,32	
1552,612	-72,56	
1552,614	-72,56	
1552,616	-72,56	
1552,618	-72,56	
1552,620	-72,56	
1552,622	-72,56	
1552,624	-72,56	
1552,626	-72,56	
1552,628	-72,56	
1552,630	-72,56	
1552,632	-72,56	
1552,634	-72,56	
1552,636	-67,10	
1552,638	-70,04	
1552,640	-72,56	
1552,642	-72,56	
1552,644	-72,40	
1552,646	-72,56	
1552,648	-68,99	
1552,650	-69,84	
1552,652	-71,58	
1552,654	-69,74	
1552,656	-72,56	
1552,658	-70,34	
1552,660	-68,18	
1552,662	-72,56	
1552,664	-69,75	
1552,666	-72,56	
1552,668	-72,56	
1552,670	-72,56	
1552,672	-72,56	
1552,674	-68,90	
1552,676	-67,79	
1552,678	-72,56	
1552,680	-71,40	
1552,682	-68,20	
1552,684	-72,56	
1552,686	-72,56	
1552,688	-68,68	
1552,690	-71,19	
1552,692	-72,56	
1552,694	-72,56	
1552,696	-72,56	
1552,698	-72,56	
1552,700	-71,14	
1552,702	-69,79	
1552,704	-68,94	
1552,706	-68,44	
1552,708	-66,61	
1552,710	-72,43	
1552,712	-72,01	
1552,714	-66,49	
1552,716	-70,23	
1552,718	-72,56	
1552,720	-72,56	
1552,722	-72,56	
1552,724	-69,96	
1552,726	-70,03	
1552,728	-72,56	
1552,730	-72,56	
1552,732	-69,57	
1552,734	-69,34	
1552,736	-72,56	
1552,738	-71,14	
1552,740	-72,56	
1552,742	-72,56	
1552,744	-72,56	
1552,746	-71,36	
1552,748	-70,41	
1552,750	-72,56	
1552,752	-72,10	
1552,754	-69,12	
1552,756	-72,56	
1552,758	-72,56	
1552,760	-69,49	
1552,762	-67,90	
1552,764	-72,56	
1552,766	-69,23	
1552,768	-72,56	
1552,770	-72,56	
1552,772	-72,56	
1552,774	-72,56	
1552,776	-72,56	
1552,778	-72,56	
1552,780	-72,56	
1552,782	-72,56	
1552,784	-72,56	
1552,786	-67,67	
1552,788	-72,56	
1552,790	-72,56	
1552,792	-72,56	
1552,794	-71,69	
1552,796	-72,56	
1552,798	-72,56	
1552,800	-72,56	
1552,802	-72,56	
1552,804	-72,56	
1552,806	-70,00	
1552,808	-71,56	
1552,810	-72,56	
1552,812	-69,18	
1552,814	-72,56	
1552,816	-72,56	
1552,818	-72,56	
1552,820	-68,27	
1552,822	-68,80	
1552,824	-72,32	
1552,826	-72,00	
1552,828	-70,79	
1552,830	-70,93	
1552,832	-68,74	
1552,834	-69,14	
1552,836	-72,56	
1552,838	-72,56	
1552,840	-68,53	
1552,842	-72,56	
1552,844	-69,05	
1552,846	-70,89	
1552,848	-72,56	
1552,850	-72,25	
1552,852	-72,56	
1552,854	-70,29	
1552,856	-72,56	
1552,858	-70,71	
1552,860	-67,44	
1552,862	-70,99	
1552,864	-72,56	
1552,866	-72,56	
1552,868	-72,56	
1552,870	-72,56	
1552,872	-68,90	
1552,874	-66,26	
1552,876	-72,56	
1552,878	-71,87	
1552,880	-72,56	
1552,882	-72,56	
1552,884	-70,80	
1552,886	-72,56	
1552,888	-72,56	
1552,890	-72,56	
1552,892	-72,56	
1552,894	-71,38	
1552,896	-72,56	
1552,898	-72,56	
1552,900	-72,56	
1552,902	-72,56	
1552,904	-72,56	
1552,906	-72,23	
1552,908	-72,56	
1552,910	-72,56	
1552,912	-70,79	
1552,914	-69,30	
1552,916	-72,56	
1552,918	-72,56	
1552,920	-67,53	
1552,922	-72,56	
1552,924	-70,05	
1552,926	-72,56	
1552,928	-72,56	
1552,930	-72,56	
1552,932	-72,56	
1552,934	-68,64	
1552,936	-72,56	
1552,938	-72,56	
1552,940	-69,96	
1552,942	-71,61	
1552,944	-71,46	
1552,946	-70,79	
1552,948	-70,13	
1552,950	-72,56	
1552,952	-72,56	
1552,954	-69,42	
1552,956	-72,56	
1552,958	-72,56	
1552,960	-67,48	
1552,962	-68,61	
1552,964	-68,52	
1552,966	-67,38	
1552,968	-69,37	
1552,970	-72,56	
1552,972	-72,56	
1552,974	-72,56	
1552,976	-72,56	
1552,978	-72,56	
1552,980	-72,56	
1552,982	-68,64	
1552,984	-67,71	
1552,986	-71,70	
1552,988	-67,05	
1552,990	-70,85	
1552,992	-70,71	
1552,994	-72,56	
1552,996	-68,67	
1552,998	-70,50	
1553,000	-70,88	


